TITLE	ACE2_Cal_0.8uM
DATA TYPE	
ORIGIN	JASCO
OWNER	
DATE	24/04/09
TIME	16:53:08
SPECTROMETER/DATA SYSTEM	
LOCALE	1033
RESOLUTION	
DELTAX	-0.1
XUNITS	NANOMETERS
YUNITS	CD [mdeg]
Y2UNITS	HT [V]
FIRSTX	  350.0000
LASTX	  190.0000
NPOINTS	    1601
FIRSTY	    -0.94172
MAXY	     7.05313
MINY	    -2.74217
XYDATA
350.0000	-0.941722	480.857
349.9000	-0.875784	480.272
349.8000	-0.91455	479.377
349.7000	-0.858064	478.468
349.6000	-0.664039	477.825
349.5000	-0.433809	477.269
349.4000	-0.361135	476.421
349.3000	-0.429713	475.813
349.2000	-0.575553	475.29
349.1000	-0.825291	474.442
349.0000	-0.99153	473.825
348.9000	-1.16835	473.287
348.8000	-1.21563	472.469
348.7000	-1.37214	471.637
348.6000	-1.54782	471.031
348.5000	-1.37919	470.506
348.4000	-1.27047	469.642
348.3000	-1.28784	469.009
348.2000	-1.20953	468.457
348.1000	-1.01055	467.625
348.0000	-1.02726	466.993
347.9000	-1.15057	466.427
347.8000	-1.21916	465.579
347.7000	-1.2923	464.722
347.6000	-1.19055	464.118
347.5000	-1.12277	463.613
347.4000	-0.994347	462.841
347.3000	-0.885128	462.263
347.2000	-0.776173	461.774
347.1000	-0.686677	461.013
347.0000	-0.624542	460.457
346.9000	-0.521857	459.981
346.8000	-0.388991	459.245
346.7000	-0.467824	458.491
346.6000	-0.286738	457.936
346.5000	-0.14709	457.179
346.4000	-0.296722	456.392
346.3000	-0.338903	455.798
346.2000	-0.172428	455.047
346.1000	-0.127542	454.273
346.0000	-0.421817	453.684
345.9000	-0.663493	453.165
345.8000	-0.805324	452.371
345.7000	-1.21896	451.782
345.6000	-1.41955	451.292
345.5000	-1.44892	450.595
345.4000	-1.46237	450.084
345.3000	-1.62823	449.649
345.2000	-1.55027	448.966
345.1000	-1.35088	448.286
345.0000	-1.13848	447.799
344.9000	-0.906112	447.169
344.8000	-0.482036	446.527
344.7000	-0.323474	446.022
344.6000	-0.222213	445.363
344.5000	-0.218455	444.686
344.4000	-0.282677	444.185
344.3000	-0.201003	443.512
344.2000	-0.271809	442.816
344.1000	-0.357066	442.286
344.0000	-0.643826	441.619
343.9000	-0.785741	440.952
343.8000	-0.841745	440.464
343.7000	-0.844288	440.042
343.6000	-0.749108	439.396
343.5000	-0.758985	438.936
343.4000	-0.743725	438.558
343.3000	-0.582168	437.953
343.2000	-0.429339	437.504
343.1000	-0.248267	437.112
343.0000	-0.0264678	436.53
342.9000	0.072544	435.931
342.8000	0.259591	435.491
342.7000	0.395956	434.891
342.6000	0.486345	434.275
342.5000	0.339617	433.81
342.4000	0.201902	433.231
342.3000	0.105169	432.649
342.2000	-0.0368597	432.202
342.1000	-0.167904	431.625
342.0000	-0.240979	431.045
341.9000	-0.224546	430.638
341.8000	-0.295067	430.083
341.7000	-0.235409	429.524
341.6000	0.0156369	429.117
341.5000	0.146969	428.597
341.4000	0.0863218	428.063
341.3000	-0.0420265	427.662
341.2000	-0.107282	427.106
341.1000	-0.393225	426.525
341.0000	-0.523849	426.099
340.9000	-0.611007	425.565
340.8000	-0.786157	425.017
340.7000	-1.00349	424.587
340.6000	-1.16102	424.041
340.5000	-1.0449	423.499
340.4000	-0.847021	423.114
340.3000	-0.701653	422.605
340.2000	-0.640637	422.092
340.1000	-0.730621	421.708
340.0000	-0.634921	421.23
339.9000	-0.685846	420.745
339.8000	-0.674235	420.386
339.7000	-0.5908	419.927
339.6000	-0.64573	419.455
339.5000	-0.717634	419.126
339.4000	-0.730625	418.676
339.3000	-0.719432	418.206
339.2000	-0.631001	417.699
339.1000	-0.650759	417.238
339.0000	-0.565078	416.765
338.9000	-0.629804	416.222
338.8000	-0.777466	415.724
338.7000	-0.673591	415.231
338.6000	-0.542201	414.694
338.5000	-0.463254	414.222
338.4000	-0.386969	413.869
338.3000	-0.397294	413.423
338.2000	-0.411896	412.972
338.1000	-0.373259	412.658
338.0000	-0.313981	412.247
337.9000	-0.391614	411.827
337.8000	-0.569084	411.531
337.7000	-0.586216	411.146
337.6000	-0.615764	410.751
337.5000	-0.600891	410.452
337.4000	-0.538884	410.068
337.3000	-0.351514	409.675
337.2000	-0.236669	409.22
337.1000	-0.0758027	408.813
337.0000	-0.000926264	408.392
336.9000	-0.095045	407.943
336.8000	-0.19317	407.547
336.7000	-0.181901	407.147
336.6000	-0.25413	406.699
336.5000	-0.396132	406.289
336.4000	-0.493048	406.005
336.3000	-0.616172	405.615
336.2000	-0.763043	405.211
336.1000	-0.751471	404.91
336.0000	-0.603836	404.53
335.9000	-0.643919	404.132
335.8000	-0.723956	403.7
335.7000	-0.737121	403.313
335.6000	-0.787264	402.919
335.5000	-0.824777	402.515
335.4000	-0.761286	402.174
335.3000	-0.897007	401.822
335.2000	-1.0529	401.447
335.1000	-1.10429	401.115
335.0000	-1.01711	400.902
334.9000	-0.887303	400.589
334.8000	-0.866437	400.256
334.7000	-0.83889	399.892
334.6000	-0.766292	399.575
334.5000	-0.552484	399.258
334.4000	-0.31835	398.878
334.3000	-0.129491	398.526
334.2000	0.0535111	398.163
334.1000	0.0131206	397.767
334.0000	0.0499203	397.428
333.9000	0.184462	397.184
333.8000	0.204739	396.85
333.7000	0.220515	396.507
333.6000	0.0578255	396.128
333.5000	-0.106703	395.805
333.4000	-0.280136	395.48
333.3000	-0.298519	395.14
333.2000	-0.375015	394.842
333.1000	-0.609786	394.533
333.0000	-0.713328	394.204
332.9000	-0.785332	393.906
332.8000	-0.745101	393.574
332.7000	-0.630671	393.283
332.6000	-0.616368	392.981
332.5000	-0.621525	392.653
332.4000	-0.734602	392.36
332.3000	-0.662375	392.065
332.2000	-0.607227	391.725
332.1000	-0.619613	391.416
332.0000	-0.605822	391.092
331.9000	-0.672723	390.819
331.8000	-0.836977	390.539
331.7000	-0.860491	390.224
331.6000	-0.754958	389.939
331.5000	-0.605686	389.537
331.4000	-0.638377	389.219
331.3000	-0.57143	388.946
331.2000	-0.607012	388.638
331.1000	-0.644074	388.362
331.0000	-0.629617	388.076
330.9000	-0.582068	387.787
330.8000	-0.581404	387.531
330.7000	-0.675401	387.239
330.6000	-0.733033	386.981
330.5000	-0.773441	386.721
330.4000	-0.878831	386.439
330.3000	-0.873337	386.2
330.2000	-0.850559	385.852
330.1000	-0.859541	385.568
330.0000	-0.92647	385.311
329.9000	-0.921093	385.029
329.8000	-0.767687	384.788
329.7000	-0.66669	384.456
329.6000	-0.562519	384.199
329.5000	-0.499073	383.967
329.4000	-0.506785	383.683
329.3000	-0.512778	383.431
329.2000	-0.493827	383.08
329.1000	-0.440966	382.811
329.0000	-0.438159	382.58
328.9000	-0.558175	382.319
328.8000	-0.68325	382.079
328.7000	-0.794444	381.742
328.6000	-0.765948	381.502
328.5000	-0.677086	381.307
328.4000	-0.731307	381.06
328.3000	-0.66737	380.843
328.2000	-0.722646	380.546
328.1000	-0.798205	380.31
328.0000	-0.726005	380.107
327.9000	-0.716133	379.855
327.8000	-0.756692	379.625
327.7000	-0.848004	379.361
327.6000	-0.770533	379.19
327.5000	-0.765642	379.057
327.4000	-0.841083	378.797
327.3000	-0.788319	378.556
327.2000	-0.83951	378.263
327.1000	-0.900482	378.053
327.0000	-0.911335	377.885
326.9000	-0.857103	377.625
326.8000	-0.883841	377.353
326.7000	-0.949891	377.035
326.6000	-0.961904	376.842
326.5000	-0.978948	376.712
326.4000	-1.04676	376.466
326.3000	-1.05223	376.227
326.2000	-0.927331	375.972
326.1000	-0.850177	375.799
326.0000	-0.833476	375.507
325.9000	-0.855054	375.238
325.8000	-0.88683	374.979
325.7000	-0.779369	374.74
325.6000	-0.783168	374.605
325.5000	-0.732535	374.325
325.4000	-0.737781	374.049
325.3000	-0.809959	373.77
325.2000	-0.856151	373.599
325.1000	-0.725875	373.49
325.0000	-0.607804	373.233
324.9000	-0.607774	372.958
324.8000	-0.595893	372.663
324.7000	-0.496891	372.517
324.6000	-0.458865	372.444
324.5000	-0.403137	372.196
324.4000	-0.274937	371.949
324.3000	-0.343502	371.708
324.2000	-0.415081	371.571
324.1000	-0.400064	371.316
324.0000	-0.414537	371.06
323.9000	-0.384664	370.798
323.8000	-0.363476	370.55
323.7000	-0.384615	370.421
323.6000	-0.526347	370.158
323.5000	-0.595701	369.879
323.4000	-0.606668	369.606
323.3000	-0.699816	369.461
323.2000	-0.72666	369.376
323.1000	-0.776467	369.132
323.0000	-0.893334	368.869
322.9000	-0.880918	368.6
322.8000	-0.741791	368.464
322.7000	-0.645687	368.228
322.6000	-0.684254	367.965
322.5000	-0.700272	367.699
322.4000	-0.741455	367.432
322.3000	-0.74359	367.268
322.2000	-0.727806	366.978
322.1000	-0.742795	366.671
322.0000	-0.824309	366.375
321.9000	-0.922813	366.199
321.8000	-0.89044	365.927
321.7000	-0.826266	365.644
321.6000	-0.708155	365.354
321.5000	-0.642276	365.084
321.4000	-0.623017	364.95
321.3000	-0.553528	364.761
321.2000	-0.547825	364.564
321.1000	-0.511309	364.365
321.0000	-0.498026	364.295
320.9000	-0.519098	364.15
320.8000	-0.466247	364.009
320.7000	-0.495984	363.869
320.6000	-0.449799	363.726
320.5000	-0.441011	363.679
320.4000	-0.457787	363.516
320.3000	-0.52182	363.349
320.2000	-0.525231	363.195
320.1000	-0.427825	363.146
320.0000	-0.567671	362.996
319.9000	-0.710318	362.829
319.8000	-0.76114	362.65
319.7000	-0.77109	362.466
319.6000	-0.778703	362.268
319.5000	-0.682222	362.122
319.4000	-0.56018	361.958
319.3000	-0.598169	361.75
319.2000	-0.52366	361.641
319.1000	-0.481413	361.442
319.0000	-0.486413	361.237
318.9000	-0.552233	361.025
318.8000	-0.590099	360.9
318.7000	-0.708655	360.676
318.6000	-0.799752	360.446
318.5000	-0.902127	360.245
318.4000	-0.930364	360.054
318.3000	-0.900587	359.849
318.2000	-0.85949	359.698
318.1000	-0.863158	359.547
318.0000	-0.855369	359.374
317.9000	-0.755556	359.307
317.8000	-0.652374	359.192
317.7000	-0.568357	359.061
317.6000	-0.526525	358.891
317.5000	-0.484215	358.798
317.4000	-0.441529	358.645
317.3000	-0.444194	358.482
317.2000	-0.468796	358.306
317.1000	-0.463181	358.128
317.0000	-0.534337	357.895
316.9000	-0.638698	357.693
316.8000	-0.703047	357.506
316.7000	-0.823664	357.321
316.6000	-0.954424	357.135
316.5000	-0.95363	356.983
316.4000	-0.895625	356.815
316.3000	-0.864919	356.646
316.2000	-0.863461	356.486
316.1000	-0.878249	356.37
316.0000	-0.863563	356.261
315.9000	-0.786719	356.111
315.8000	-0.736056	356.014
315.7000	-0.722738	355.857
315.6000	-0.747165	355.731
315.5000	-0.820142	355.578
315.4000	-0.843683	355.479
315.3000	-0.819344	355.298
315.2000	-0.822921	355.103
315.1000	-0.838624	354.927
315.0000	-0.747026	354.764
314.9000	-0.721457	354.592
314.8000	-0.676221	354.44
314.7000	-0.606344	354.279
314.6000	-0.526496	354.126
314.5000	-0.495498	353.98
314.4000	-0.429847	353.877
314.3000	-0.431954	353.742
314.2000	-0.503111	353.605
314.1000	-0.621385	353.432
314.0000	-0.641217	353.286
313.9000	-0.678741	353.134
313.8000	-0.755542	352.987
313.7000	-0.734857	352.79
313.6000	-0.787899	352.607
313.5000	-0.810591	352.432
313.4000	-0.878386	352.263
313.3000	-0.927677	352.098
313.2000	-0.904108	351.962
313.1000	-0.956501	351.809
313.0000	-0.984104	351.664
312.9000	-1.03199	351.529
312.8000	-1.0522	351.432
312.7000	-1.0488	351.307
312.6000	-1.04428	351.189
312.5000	-0.992356	351.043
312.4000	-1.01082	350.906
312.3000	-1.01519	350.747
312.2000	-0.995663	350.59
312.1000	-0.974346	350.386
312.0000	-1.02378	350.189
311.9000	-1.06029	350.002
311.8000	-1.09234	349.781
311.7000	-1.08228	349.602
311.6000	-1.04541	349.415
311.5000	-1.00097	349.267
311.4000	-1.07814	349.081
311.3000	-1.12437	348.962
311.2000	-1.13507	348.842
311.1000	-1.13141	348.743
311.0000	-1.09378	348.639
310.9000	-0.998455	348.554
310.8000	-1.0027	348.45
310.7000	-1.04555	348.359
310.6000	-0.981355	348.244
310.5000	-0.893306	348.147
310.4000	-0.808126	348.052
310.3000	-0.783239	347.97
310.2000	-0.775474	347.888
310.1000	-0.79632	347.82
310.0000	-0.813795	347.746
309.9000	-0.772752	347.686
309.8000	-0.764529	347.627
309.7000	-0.711155	347.543
309.6000	-0.67911	347.474
309.5000	-0.666947	347.367
309.4000	-0.614624	347.283
309.3000	-0.619189	347.152
309.2000	-0.566761	347.049
309.1000	-0.515131	346.895
309.0000	-0.485777	346.766
308.9000	-0.48502	346.65
308.8000	-0.617119	346.544
308.7000	-0.720646	346.446
308.6000	-0.702667	346.367
308.5000	-0.654438	346.28
308.4000	-0.700704	346.178
308.3000	-0.768563	346.115
308.2000	-0.859461	346.014
308.1000	-0.971576	345.94
308.0000	-1.00217	345.847
307.9000	-0.969804	345.771
307.8000	-0.930554	345.644
307.7000	-0.93624	345.546
307.6000	-0.927647	345.432
307.5000	-0.910753	345.279
307.4000	-0.860428	345.167
307.3000	-0.773466	345.054
307.2000	-0.666049	344.965
307.1000	-0.59448	344.837
307.0000	-0.619639	344.751
306.9000	-0.74104	344.658
306.8000	-0.824258	344.6
306.7000	-0.875173	344.54
306.6000	-0.9328	344.455
306.5000	-0.965864	344.383
306.4000	-0.948182	344.269
306.3000	-0.946777	344.189
306.2000	-0.957857	344.078
306.1000	-0.949603	343.98
306.0000	-0.934529	343.847
305.9000	-0.907501	343.752
305.8000	-0.890733	343.686
305.7000	-0.852487	343.582
305.6000	-0.849782	343.513
305.5000	-0.883077	343.441
305.4000	-0.957598	343.396
305.3000	-0.960943	343.307
305.2000	-0.895264	343.248
305.1000	-0.838109	343.18
305.0000	-0.804758	343.068
304.9000	-0.771355	342.999
304.8000	-0.785972	342.91
304.7000	-0.793416	342.83
304.6000	-0.854456	342.71
304.5000	-0.818557	342.617
304.4000	-0.765609	342.547
304.3000	-0.708849	342.444
304.2000	-0.654804	342.387
304.1000	-0.615116	342.329
304.0000	-0.640517	342.292
303.9000	-0.666831	342.212
303.8000	-0.591876	342.143
303.7000	-0.617479	342.098
303.6000	-0.618588	342.003
303.5000	-0.694505	341.94
303.4000	-0.759365	341.862
303.3000	-0.839593	341.759
303.2000	-0.863667	341.66
303.1000	-0.838668	341.585
303.0000	-0.932762	341.541
302.9000	-0.989555	341.456
302.8000	-0.956196	341.39
302.7000	-0.993884	341.338
302.6000	-1.04774	341.253
302.5000	-1.03249	341.215
302.4000	-1.01148	341.169
302.3000	-1.0361	341.086
302.2000	-1.00326	341.006
302.1000	-0.90865	340.933
302.0000	-0.883372	340.886
301.9000	-0.924014	340.806
301.8000	-0.920947	340.744
301.7000	-0.900799	340.694
301.6000	-0.90653	340.613
301.5000	-0.846584	340.57
301.4000	-0.799677	340.525
301.3000	-0.755152	340.456
301.2000	-0.753192	340.394
301.1000	-0.738613	340.341
301.0000	-0.688431	340.318
300.9000	-0.668823	340.255
300.8000	-0.693255	340.187
300.7000	-0.767828	340.133
300.6000	-0.839484	340.061
300.5000	-0.891686	340.002
300.4000	-0.902611	339.962
300.3000	-0.946592	339.895
300.2000	-0.970047	339.833
300.1000	-1.01222	339.781
300.0000	-1.10523	339.724
299.9000	-1.08317	339.68
299.8000	-1.03062	339.638
299.7000	-0.945176	339.585
299.6000	-0.905177	339.534
299.5000	-0.859129	339.482
299.4000	-0.772475	339.444
299.3000	-0.774048	339.385
299.2000	-0.65855	339.346
299.1000	-0.657266	339.315
299.0000	-0.671053	339.261
298.9000	-0.765822	339.218
298.8000	-0.87019	339.186
298.7000	-0.937586	339.136
298.6000	-0.990599	339.093
298.5000	-1.03935	339.049
298.4000	-1.04013	338.993
298.3000	-1.03105	338.947
298.2000	-1.04004	338.896
298.1000	-1.04615	338.842
298.0000	-0.999535	338.797
297.9000	-0.984675	338.758
297.8000	-1.02863	338.697
297.7000	-1.0407	338.651
297.6000	-1.06862	338.62
297.5000	-1.09704	338.563
297.4000	-1.02445	338.528
297.3000	-0.994044	338.499
297.2000	-1.01266	338.443
297.1000	-1.00802	338.401
297.0000	-0.967336	338.363
296.9000	-1.01617	338.302
296.8000	-0.988197	338.256
296.7000	-0.998371	338.22
296.6000	-1.04047	338.196
296.5000	-1.02248	338.159
296.4000	-0.979025	338.133
296.3000	-0.929967	338.115
296.2000	-0.942025	338.082
296.1000	-0.91265	338.06
296.0000	-0.900517	338.045
295.9000	-0.882922	338.012
295.8000	-0.892404	337.956
295.7000	-0.947067	337.922
295.6000	-1.08215	337.881
295.5000	-1.18973	337.824
295.4000	-1.20982	337.762
295.3000	-1.19472	337.727
295.2000	-1.20361	337.678
295.1000	-1.27438	337.617
295.0000	-1.31041	337.587
294.9000	-1.31985	337.542
294.8000	-1.30201	337.486
294.7000	-1.24934	337.457
294.6000	-1.24467	337.434
294.5000	-1.24084	337.395
294.4000	-1.2024	337.369
294.3000	-1.18144	337.347
294.2000	-1.11507	337.311
294.1000	-1.0858	337.287
294.0000	-1.03619	337.272
293.9000	-1.05395	337.234
293.8000	-1.02716	337.211
293.7000	-1.0066	337.19
293.6000	-1.03403	337.146
293.5000	-1.05674	337.094
293.4000	-1.05435	337.071
293.3000	-1.0916	337.032
293.2000	-1.10722	336.984
293.1000	-1.12416	336.967
293.0000	-1.14812	336.929
292.9000	-1.1808	336.886
292.8000	-1.27428	336.87
292.7000	-1.30716	336.855
292.6000	-1.2994	336.827
292.5000	-1.24342	336.785
292.4000	-1.18853	336.768
292.3000	-1.16231	336.729
292.2000	-1.14635	336.687
292.1000	-1.12125	336.67
292.0000	-1.05222	336.638
291.9000	-0.994243	336.594
291.8000	-0.989328	336.555
291.7000	-0.985588	336.542
291.6000	-0.959826	336.507
291.5000	-0.914212	336.469
291.4000	-0.828991	336.455
291.3000	-0.782425	336.414
291.2000	-0.722133	336.36
291.1000	-0.730869	336.301
291.0000	-0.729344	336.26
290.9000	-0.667449	336.199
290.8000	-0.658754	336.117
290.7000	-0.676179	336.029
290.6000	-0.675461	335.933
290.5000	-0.637457	335.816
290.4000	-0.616744	335.693
290.3000	-0.571749	335.59
290.2000	-0.471159	335.465
290.1000	-0.490483	335.324
290.0000	-0.49838	335.196
289.9000	-0.522301	335.107
289.8000	-0.583689	335.023
289.7000	-0.709034	334.96
289.6000	-0.856313	334.932
289.5000	-0.926212	334.945
289.4000	-1.05367	334.983
289.3000	-1.10951	335.056
289.2000	-1.11012	335.154
289.1000	-1.11997	335.273
289.0000	-1.12192	335.387
288.9000	-1.1021	335.502
288.8000	-1.04334	335.609
288.7000	-0.996317	335.708
288.6000	-0.944627	335.781
288.5000	-0.923649	335.835
288.4000	-0.951144	335.871
288.3000	-1.00581	335.895
288.2000	-1.0046	335.9
288.1000	-1.00769	335.899
288.0000	-1.01799	335.887
287.9000	-1.05058	335.857
287.8000	-1.10351	335.841
287.7000	-1.11783	335.825
287.6000	-1.08321	335.812
287.5000	-1.08625	335.787
287.4000	-1.08684	335.779
287.3000	-1.06391	335.775
287.2000	-1.03887	335.77
287.1000	-0.975786	335.768
287.0000	-0.937934	335.743
286.9000	-0.884058	335.734
286.8000	-0.903609	335.728
286.7000	-0.85137	335.722
286.6000	-0.81357	335.703
286.5000	-0.777586	335.701
286.4000	-0.705506	335.702
286.3000	-0.7044	335.708
286.2000	-0.667746	335.713
286.1000	-0.661187	335.71
286.0000	-0.634137	335.72
285.9000	-0.676952	335.717
285.8000	-0.696747	335.721
285.7000	-0.712973	335.704
285.6000	-0.819853	335.684
285.5000	-0.859827	335.687
285.4000	-0.885689	335.689
285.3000	-0.897786	335.699
285.2000	-0.938048	335.681
285.1000	-0.938534	335.674
285.0000	-0.978403	335.686
284.9000	-1.0373	335.688
284.8000	-1.0482	335.697
284.7000	-1.05027	335.682
284.6000	-1.07259	335.672
284.5000	-1.12006	335.684
284.4000	-1.12473	335.697
284.3000	-1.13109	335.72
284.2000	-1.06862	335.716
284.1000	-1.03752	335.72
284.0000	-0.974179	335.712
283.9000	-0.953814	335.726
283.8000	-0.941848	335.743
283.7000	-0.964613	335.737
283.6000	-0.953216	335.735
283.5000	-0.985724	335.724
283.4000	-1.05327	335.721
283.3000	-1.10442	335.737
283.2000	-1.08197	335.758
283.1000	-1.09443	335.776
283.0000	-1.13347	335.778
282.9000	-1.11648	335.786
282.8000	-1.07657	335.792
282.7000	-1.01247	335.816
282.6000	-0.970426	335.84
282.5000	-0.921577	335.85
282.4000	-0.973888	335.855
282.3000	-1.0108	335.857
282.2000	-1.02219	335.861
282.1000	-1.03322	335.885
282.0000	-1.05152	335.91
281.9000	-1.02975	335.924
281.8000	-1.02797	335.929
281.7000	-0.969435	335.934
281.6000	-0.912354	335.941
281.5000	-0.933609	335.944
281.4000	-0.944746	335.97
281.3000	-0.922158	335.981
281.2000	-0.897686	335.983
281.1000	-0.987348	335.98
281.0000	-1.05335	335.98
280.9000	-1.08163	335.985
280.8000	-1.01567	335.988
280.7000	-0.938259	335.996
280.6000	-0.861311	336.007
280.5000	-0.859135	336.007
280.4000	-0.830163	336.007
280.3000	-0.751505	336.006
280.2000	-0.76882	336.003
280.1000	-0.818258	336.001
280.0000	-0.952408	335.996
279.9000	-1.06084	335.993
279.8000	-1.06476	335.978
279.7000	-1.05558	335.979
279.6000	-1.05098	335.978
279.5000	-1.13874	335.982
279.4000	-1.12234	335.99
279.3000	-1.07654	335.999
279.2000	-1.02554	336.011
279.1000	-0.982356	336.022
279.0000	-1.03356	336.032
278.9000	-1.10111	336.032
278.8000	-1.11587	336.05
278.7000	-1.11899	336.069
278.6000	-1.14197	336.083
278.5000	-1.16863	336.099
278.4000	-1.14995	336.112
278.3000	-1.15186	336.128
278.2000	-1.0981	336.144
278.1000	-1.06748	336.157
278.0000	-1.04061	336.157
277.9000	-1.05741	336.153
277.8000	-1.04727	336.158
277.7000	-1.06564	336.167
277.6000	-1.05948	336.196
277.5000	-1.07512	336.223
277.4000	-1.1027	336.248
277.3000	-1.07549	336.276
277.2000	-1.12136	336.302
277.1000	-1.12344	336.327
277.0000	-1.04454	336.349
276.9000	-0.949736	336.37
276.8000	-0.905579	336.373
276.7000	-0.905987	336.37
276.6000	-0.954414	336.367
276.5000	-0.991128	336.368
276.4000	-0.946095	336.371
276.3000	-0.922254	336.376
276.2000	-1.00341	336.378
276.1000	-1.10594	336.385
276.0000	-1.15793	336.414
275.9000	-1.13285	336.443
275.8000	-1.11565	336.471
275.7000	-1.09041	336.497
275.6000	-1.09196	336.527
275.5000	-1.06179	336.556
275.4000	-1.02	336.588
275.3000	-1.01161	336.617
275.2000	-1.02576	336.63
275.1000	-1.057	336.642
275.0000	-1.01295	336.658
274.9000	-0.926306	336.678
274.8000	-0.854993	336.695
274.7000	-0.839678	336.71
274.6000	-0.818388	336.723
274.5000	-0.802907	336.739
274.4000	-0.764824	336.752
274.3000	-0.716828	336.767
274.2000	-0.68163	336.779
274.1000	-0.70372	336.793
274.0000	-0.810592	336.802
273.9000	-0.862041	336.816
273.8000	-0.946747	336.831
273.7000	-0.920955	336.851
273.6000	-0.874362	336.874
273.5000	-0.797101	336.9
273.4000	-0.814211	336.92
273.3000	-0.863025	336.937
273.2000	-0.912587	336.953
273.1000	-0.979483	336.975
273.0000	-1.02732	336.996
272.9000	-1.07789	337.016
272.8000	-1.14107	337.03
272.7000	-1.21199	337.045
272.6000	-1.2453	337.059
272.5000	-1.26314	337.079
272.4000	-1.1864	337.105
272.3000	-1.05792	337.128
272.2000	-0.978382	337.147
272.1000	-0.880211	337.163
272.0000	-0.853897	337.18
271.9000	-0.82372	337.201
271.8000	-0.806686	337.222
271.7000	-0.777303	337.249
271.6000	-0.757654	337.271
271.5000	-0.81171	337.288
271.4000	-0.834749	337.306
271.3000	-0.853785	337.33
271.2000	-0.855819	337.352
271.1000	-0.85539	337.372
271.0000	-0.86712	337.388
270.9000	-0.829267	337.382
270.8000	-0.81322	337.37
270.7000	-0.751087	337.362
270.6000	-0.748951	337.357
270.5000	-0.714628	337.35
270.4000	-0.606407	337.343
270.3000	-0.567049	337.331
270.2000	-0.498379	337.325
270.1000	-0.484389	337.329
270.0000	-0.435027	337.345
269.9000	-0.418559	337.364
269.8000	-0.350676	337.388
269.7000	-0.372682	337.407
269.6000	-0.45234	337.426
269.5000	-0.481392	337.444
269.4000	-0.539265	337.448
269.3000	-0.556388	337.46
269.2000	-0.570206	337.479
269.1000	-0.545024	337.508
269.0000	-0.560504	337.532
268.9000	-0.558034	337.558
268.8000	-0.533549	337.584
268.7000	-0.545937	337.625
268.6000	-0.568057	337.675
268.5000	-0.582924	337.73
268.4000	-0.641251	337.777
268.3000	-0.728041	337.808
268.2000	-0.816185	337.846
268.1000	-0.864358	337.877
268.0000	-0.818929	337.927
267.9000	-0.747019	337.972
267.8000	-0.683618	338.024
267.7000	-0.698078	338.073
267.6000	-0.701315	338.129
267.5000	-0.737621	338.185
267.4000	-0.704622	338.224
267.3000	-0.713707	338.268
267.2000	-0.79327	338.306
267.1000	-0.923949	338.347
267.0000	-1.02034	338.387
266.9000	-1.01704	338.435
266.8000	-0.990049	338.478
266.7000	-0.964042	338.512
266.6000	-0.963664	338.567
266.5000	-1.00742	338.626
266.4000	-0.972676	338.689
266.3000	-0.894798	338.746
266.2000	-0.824956	338.802
266.1000	-0.75658	338.853
266.0000	-0.787215	338.892
265.9000	-0.81427	338.949
265.8000	-0.777494	339.008
265.7000	-0.738316	339.068
265.6000	-0.707431	339.133
265.5000	-0.766119	339.198
265.4000	-0.820777	339.252
265.3000	-0.897585	339.302
265.2000	-0.957727	339.368
265.1000	-0.957227	339.44
265.0000	-1.0075	339.513
264.9000	-1.10491	339.586
264.8000	-1.14083	339.639
264.7000	-1.13829	339.697
264.6000	-1.08725	339.768
264.5000	-0.959838	339.853
264.4000	-0.871659	339.931
264.3000	-0.791858	339.994
264.2000	-0.730741	340.061
264.1000	-0.633124	340.126
264.0000	-0.562217	340.203
263.9000	-0.53754	340.28
263.8000	-0.547863	340.342
263.7000	-0.618903	340.402
263.6000	-0.602928	340.474
263.5000	-0.586033	340.558
263.4000	-0.646623	340.639
263.3000	-0.652675	340.71
263.2000	-0.678984	340.785
263.1000	-0.722557	340.863
263.0000	-0.726707	340.952
262.9000	-0.679138	341.034
262.8000	-0.758466	341.116
262.7000	-0.850862	341.194
262.6000	-0.830394	341.278
262.5000	-0.800654	341.37
262.4000	-0.816168	341.445
262.3000	-0.788186	341.518
262.2000	-0.771193	341.59
262.1000	-0.777636	341.677
262.0000	-0.857192	341.744
261.9000	-0.849062	341.813
261.8000	-0.909673	341.878
261.7000	-1.00859	341.927
261.6000	-1.04661	341.992
261.5000	-1.0772	342.076
261.4000	-1.08809	342.165
261.3000	-1.06803	342.246
261.2000	-1.03877	342.341
261.1000	-1.01043	342.434
261.0000	-1.06894	342.529
260.9000	-1.11235	342.619
260.8000	-1.07954	342.716
260.7000	-1.07575	342.808
260.6000	-1.10976	342.887
260.5000	-1.12442	342.973
260.4000	-1.08603	343.066
260.3000	-1.083	343.159
260.2000	-1.01563	343.238
260.1000	-0.957564	343.325
260.0000	-0.945347	343.421
259.9000	-0.967309	343.5
259.8000	-0.997277	343.586
259.7000	-1.00381	343.673
259.6000	-1.0301	343.742
259.5000	-1.03703	343.813
259.4000	-0.992892	343.899
259.3000	-0.997476	343.981
259.2000	-1.00254	344.068
259.1000	-0.951427	344.165
259.0000	-0.889367	344.255
258.9000	-0.91019	344.341
258.8000	-0.936179	344.439
258.7000	-0.960204	344.529
258.6000	-1.00575	344.625
258.5000	-1.02377	344.734
258.4000	-0.959059	344.834
258.3000	-0.961553	344.934
258.2000	-1.02616	345.039
258.1000	-1.07181	345.138
258.0000	-1.02598	345.249
257.9000	-0.955945	345.373
257.8000	-0.963149	345.481
257.7000	-0.976538	345.581
257.6000	-0.970989	345.691
257.5000	-0.96098	345.796
257.4000	-0.932456	345.898
257.3000	-0.798291	345.993
257.2000	-0.733152	346.079
257.1000	-0.788213	346.161
257.0000	-0.794631	346.25
256.9000	-0.707289	346.35
256.8000	-0.692076	346.43
256.7000	-0.650093	346.518
256.6000	-0.624381	346.612
256.5000	-0.65576	346.706
256.4000	-0.641103	346.811
256.3000	-0.594448	346.903
256.2000	-0.609934	346.987
256.1000	-0.66605	347.073
256.0000	-0.685558	347.167
255.9000	-0.647309	347.266
255.8000	-0.646148	347.353
255.7000	-0.657818	347.45
255.6000	-0.719686	347.549
255.5000	-0.733251	347.648
255.4000	-0.693479	347.758
255.3000	-0.664017	347.847
255.2000	-0.692734	347.94
255.1000	-0.767229	348.026
255.0000	-0.837769	348.123
254.9000	-0.93515	348.212
254.8000	-0.935786	348.31
254.7000	-0.943658	348.422
254.6000	-0.929943	348.525
254.5000	-0.888698	348.639
254.4000	-0.787462	348.742
254.3000	-0.701679	348.85
254.2000	-0.720631	348.951
254.1000	-0.689891	349.063
254.0000	-0.662486	349.163
253.9000	-0.650298	349.248
253.8000	-0.661009	349.324
253.7000	-0.668092	349.411
253.6000	-0.683174	349.504
253.5000	-0.728761	349.617
253.4000	-0.736941	349.722
253.3000	-0.699896	349.823
253.2000	-0.716138	349.919
253.1000	-0.764854	350.023
253.0000	-0.816161	350.131
252.9000	-0.843956	350.245
252.8000	-0.875502	350.349
252.7000	-0.845168	350.448
252.6000	-0.849482	350.541
252.5000	-0.860081	350.646
252.4000	-0.850555	350.745
252.3000	-0.777792	350.847
252.2000	-0.704089	350.949
252.1000	-0.677374	351.048
252.0000	-0.69368	351.131
251.9000	-0.706663	351.208
251.8000	-0.705313	351.295
251.7000	-0.618634	351.371
251.6000	-0.599685	351.452
251.5000	-0.6277	351.535
251.4000	-0.709988	351.628
251.3000	-0.690987	351.719
251.2000	-0.714596	351.811
251.1000	-0.7999	351.921
251.0000	-0.836299	352.027
250.9000	-0.945919	352.137
250.8000	-1.02679	352.242
250.7000	-1.00847	352.357
250.6000	-0.969279	352.46
250.5000	-0.984035	352.552
250.4000	-0.971854	352.659
250.3000	-0.940589	352.759
250.2000	-0.925256	352.863
250.1000	-0.932278	352.958
250.0000	-0.995877	353.049
249.9000	-1.10214	353.144
249.8000	-1.12284	353.241
249.7000	-1.16887	353.351
249.6000	-1.17244	353.454
249.5000	-1.16601	353.557
249.4000	-1.08785	353.67
249.3000	-1.04464	353.78
249.2000	-0.938735	353.895
249.1000	-0.82716	354.017
249.0000	-0.809031	354.13
248.9000	-0.750164	354.234
248.8000	-0.788924	354.345
248.7000	-0.806266	354.454
248.6000	-0.883977	354.547
248.5000	-0.965512	354.647
248.4000	-0.978303	354.756
248.3000	-0.980646	354.855
248.2000	-0.928071	354.951
248.1000	-0.957896	355.045
248.0000	-0.8799	355.14
247.9000	-0.844859	355.244
247.8000	-0.840643	355.353
247.7000	-0.782706	355.451
247.6000	-0.797807	355.547
247.5000	-0.728848	355.646
247.4000	-0.767184	355.739
247.3000	-0.761591	355.831
247.2000	-0.792316	355.93
247.1000	-0.82803	356.019
247.0000	-0.802737	356.098
246.9000	-0.790368	356.188
246.8000	-0.856446	356.264
246.7000	-0.848555	356.333
246.6000	-0.875614	356.399
246.5000	-0.88449	356.479
246.4000	-0.852645	356.558
246.3000	-0.854595	356.634
246.2000	-0.785145	356.718
246.1000	-0.731451	356.82
246.0000	-0.692658	356.929
245.9000	-0.660294	357.047
245.8000	-0.714999	357.167
245.7000	-0.652948	357.292
245.6000	-0.670142	357.408
245.5000	-0.675255	357.523
245.4000	-0.664874	357.641
245.3000	-0.668795	357.75
245.2000	-0.6263	357.866
245.1000	-0.552123	357.987
245.0000	-0.518286	358.114
244.9000	-0.516936	358.24
244.8000	-0.513129	358.364
244.7000	-0.483199	358.495
244.6000	-0.507873	358.624
244.5000	-0.514498	358.755
244.4000	-0.521933	358.874
244.3000	-0.546967	358.987
244.2000	-0.580096	359.09
244.1000	-0.518045	359.203
244.0000	-0.508511	359.319
243.9000	-0.521332	359.434
243.8000	-0.606783	359.542
243.7000	-0.617466	359.652
243.6000	-0.687877	359.754
243.5000	-0.798398	359.851
243.4000	-0.807132	359.963
243.3000	-0.861031	360.072
243.2000	-0.941992	360.175
243.1000	-0.988182	360.277
243.0000	-0.904713	360.39
242.9000	-0.863161	360.505
242.8000	-0.872049	360.625
242.7000	-0.776234	360.758
242.6000	-0.758501	360.891
242.5000	-0.819806	361.011
242.4000	-0.817698	361.139
242.3000	-0.818415	361.274
242.2000	-0.915152	361.41
242.1000	-0.952938	361.552
242.0000	-0.922601	361.691
241.9000	-0.9392	361.825
241.8000	-0.973573	361.958
241.7000	-0.975945	362.096
241.6000	-1.04331	362.234
241.5000	-1.10874	362.373
241.4000	-1.0729	362.517
241.3000	-1.04927	362.659
241.2000	-1.13867	362.799
241.1000	-1.12787	362.94
241.0000	-1.05176	363.078
240.9000	-1.02406	363.213
240.8000	-0.962377	363.349
240.7000	-0.819165	363.49
240.6000	-0.757079	363.634
240.5000	-0.71313	363.782
240.4000	-0.627651	363.929
240.3000	-0.603483	364.079
240.2000	-0.644387	364.232
240.1000	-0.732627	364.392
240.0000	-0.744762	364.564
239.9000	-0.789045	364.734
239.8000	-0.822655	364.9
239.7000	-0.804391	365.06
239.6000	-0.836899	365.217
239.5000	-1.00754	365.377
239.4000	-1.07046	365.548
239.3000	-1.05277	365.72
239.2000	-1.03804	365.888
239.1000	-0.969152	366.056
239.0000	-0.908486	366.227
238.9000	-0.881521	366.401
238.8000	-0.861904	366.58
238.7000	-0.774613	366.759
238.6000	-0.719958	366.921
238.5000	-0.703117	367.084
238.4000	-0.662488	367.253
238.3000	-0.763692	367.422
238.2000	-0.861917	367.594
238.1000	-1.03618	367.767
238.0000	-1.19287	367.938
237.9000	-1.30245	368.11
237.8000	-1.30751	368.294
237.7000	-1.37485	368.48
237.6000	-1.49397	368.666
237.5000	-1.55551	368.858
237.4000	-1.58379	369.045
237.3000	-1.58983	369.228
237.2000	-1.44782	369.414
237.1000	-1.34884	369.598
237.0000	-1.22149	369.787
236.9000	-1.20373	369.97
236.8000	-1.11578	370.154
236.7000	-1.03441	370.34
236.6000	-0.979012	370.519
236.5000	-0.93365	370.701
236.4000	-0.981264	370.885
236.3000	-1.08633	371.078
236.2000	-1.20091	371.273
236.1000	-1.20785	371.471
236.0000	-1.20073	371.676
235.9000	-1.21147	371.88
235.8000	-1.18839	372.093
235.7000	-1.1702	372.308
235.6000	-1.09782	372.527
235.5000	-1.02477	372.743
235.4000	-0.950112	372.96
235.3000	-0.968574	373.173
235.2000	-0.992672	373.386
235.1000	-1.0177	373.591
235.0000	-0.987953	373.795
234.9000	-0.929602	373.999
234.8000	-0.910525	374.203
234.7000	-0.935611	374.417
234.6000	-1.06211	374.623
234.5000	-1.11208	374.838
234.4000	-1.07217	375.06
234.3000	-0.978556	375.287
234.2000	-0.930682	375.518
234.1000	-0.962109	375.751
234.0000	-1.06852	375.975
233.9000	-1.15631	376.195
233.8000	-1.0472	376.42
233.7000	-0.946025	376.644
233.6000	-0.903299	376.871
233.5000	-0.868237	377.1
233.4000	-0.92496	377.32
233.3000	-0.912785	377.542
233.2000	-0.875543	377.773
233.1000	-0.857474	378
233.0000	-0.982959	378.228
232.9000	-1.12314	378.459
232.8000	-1.19336	378.694
232.7000	-1.28611	378.928
232.6000	-1.35432	379.164
232.5000	-1.41963	379.405
232.4000	-1.45218	379.643
232.3000	-1.54082	379.887
232.2000	-1.50867	380.131
232.1000	-1.42567	380.38
232.0000	-1.41878	380.621
231.9000	-1.55632	380.855
231.8000	-1.56593	381.088
231.7000	-1.53185	381.319
231.6000	-1.43558	381.557
231.5000	-1.27315	381.795
231.4000	-1.12783	382.037
231.3000	-1.12977	382.27
231.2000	-1.15874	382.504
231.1000	-1.10438	382.736
231.0000	-1.06572	382.972
230.9000	-1.11125	383.216
230.8000	-1.20524	383.454
230.7000	-1.35479	383.697
230.6000	-1.48051	383.938
230.5000	-1.50439	384.19
230.4000	-1.51139	384.444
230.3000	-1.5666	384.708
230.2000	-1.60056	384.972
230.1000	-1.59444	385.241
230.0000	-1.55132	385.506
229.9000	-1.46921	385.764
229.8000	-1.49235	386.021
229.7000	-1.56784	386.266
229.6000	-1.70659	386.507
229.5000	-1.68302	386.743
229.4000	-1.68411	386.972
229.3000	-1.77471	387.198
229.2000	-1.8718	387.423
229.1000	-1.94354	387.648
229.0000	-2.02035	387.874
228.9000	-1.97457	388.107
228.8000	-1.76295	388.343
228.7000	-1.67882	388.588
228.6000	-1.63117	388.841
228.5000	-1.60331	389.1
228.4000	-1.63476	389.375
228.3000	-1.6895	389.66
228.2000	-1.6993	389.947
228.1000	-1.67069	390.248
228.0000	-1.75953	390.548
227.9000	-1.81633	390.846
227.8000	-1.90321	391.137
227.7000	-1.97056	391.434
227.6000	-1.98792	391.723
227.5000	-1.92074	392.008
227.4000	-1.90779	392.288
227.3000	-1.98976	392.569
227.2000	-2.12505	392.843
227.1000	-2.2107	393.121
227.0000	-2.14824	393.404
226.9000	-2.0987	393.677
226.8000	-1.90726	393.961
226.7000	-1.8304	394.24
226.6000	-1.88778	394.514
226.5000	-2.00078	394.779
226.4000	-1.93409	395.046
226.3000	-1.82569	395.315
226.2000	-1.86076	395.586
226.1000	-1.81384	395.865
226.0000	-1.81006	396.132
225.9000	-1.84522	396.393
225.8000	-1.82601	396.66
225.7000	-1.86752	396.927
225.6000	-1.9112	397.199
225.5000	-1.95559	397.473
225.4000	-2.02563	397.74
225.3000	-2.07546	398.012
225.2000	-2.10401	398.29
225.1000	-2.02767	398.576
225.0000	-2.07221	398.856
224.9000	-2.09787	399.138
224.8000	-2.05015	399.419
224.7000	-2.08817	399.697
224.6000	-2.0397	399.983
224.5000	-2.05538	400.26
224.4000	-2.13906	400.534
224.3000	-2.30376	400.801
224.2000	-2.39473	401.072
224.1000	-2.37978	401.349
224.0000	-2.28115	401.631
223.9000	-2.1292	401.914
223.8000	-2.04144	402.192
223.7000	-1.99786	402.468
223.6000	-1.99598	402.745
223.5000	-1.98866	403.022
223.4000	-1.8572	403.305
223.3000	-1.79011	403.576
223.2000	-1.89392	403.84
223.1000	-2.00841	404.105
223.0000	-2.00176	404.372
222.9000	-1.85554	404.642
222.8000	-1.75652	404.908
222.7000	-1.54072	405.175
222.6000	-1.60349	405.431
222.5000	-1.57286	405.693
222.4000	-1.33454	405.957
222.3000	-1.2327	406.219
222.2000	-1.32981	406.472
222.1000	-1.47782	406.725
222.0000	-1.60454	406.978
221.9000	-1.84524	407.22
221.8000	-1.90538	407.47
221.7000	-1.99385	407.723
221.6000	-2.27513	407.974
221.5000	-2.41203	408.234
221.4000	-2.39482	408.494
221.3000	-2.43359	408.751
221.2000	-2.42027	409.014
221.1000	-2.06958	409.291
221.0000	-1.86981	409.563
220.9000	-1.76893	409.829
220.8000	-1.49869	410.102
220.7000	-1.26268	410.369
220.6000	-1.21023	410.634
220.5000	-1.12861	410.906
220.4000	-1.116	411.167
220.3000	-1.4326	411.423
220.2000	-1.70576	411.686
220.1000	-1.86969	411.951
220.0000	-1.96441	412.221
219.9000	-2.01703	412.499
219.8000	-1.95727	412.775
219.7000	-1.95127	413.051
219.6000	-1.93492	413.323
219.5000	-1.91884	413.599
219.4000	-1.86884	413.874
219.3000	-1.76986	414.146
219.2000	-1.60748	414.423
219.1000	-1.59254	414.689
219.0000	-1.61286	414.959
218.9000	-1.57078	415.228
218.8000	-1.49932	415.502
218.7000	-1.52491	415.77
218.6000	-1.41978	416.042
218.5000	-1.35087	416.313
218.4000	-1.53928	416.577
218.3000	-1.65245	416.841
218.2000	-1.7404	417.109
218.1000	-1.84108	417.377
218.0000	-1.97299	417.646
217.9000	-1.9386	417.919
217.8000	-1.92624	418.184
217.7000	-1.98181	418.452
217.6000	-1.98217	418.718
217.5000	-2.02305	418.989
217.4000	-2.09576	419.256
217.3000	-2.13545	419.526
217.2000	-2.21102	419.799
217.1000	-2.1063	420.078
217.0000	-2.11801	420.353
216.9000	-2.21628	420.63
216.8000	-2.28249	420.907
216.7000	-2.31788	421.177
216.6000	-2.34358	421.454
216.5000	-2.40362	421.729
216.4000	-2.42007	421.999
216.3000	-2.36121	422.269
216.2000	-2.27768	422.549
216.1000	-2.12543	422.83
216.0000	-2.0885	423.108
215.9000	-2.16942	423.384
215.8000	-2.22953	423.659
215.7000	-2.0947	423.947
215.6000	-1.87319	424.241
215.5000	-1.89032	424.532
215.4000	-2.06495	424.814
215.3000	-2.24152	425.097
215.2000	-2.13164	425.39
215.1000	-1.93149	425.695
215.0000	-1.72251	426.005
214.9000	-1.69876	426.304
214.8000	-1.74544	426.599
214.7000	-1.78587	426.9
214.6000	-1.69032	427.205
214.5000	-1.60934	427.512
214.4000	-1.56101	427.821
214.3000	-1.52446	428.128
214.2000	-1.66495	428.422
214.1000	-1.80978	428.72
214.0000	-1.84208	429.024
213.9000	-1.80465	429.332
213.8000	-1.84735	429.64
213.7000	-2.11442	429.943
213.6000	-2.5198	430.243
213.5000	-2.74217	430.548
213.4000	-2.58532	430.873
213.3000	-2.40683	431.202
213.2000	-2.22885	431.532
213.1000	-2.31835	431.858
213.0000	-2.27055	432.19
212.9000	-2.00656	432.533
212.8000	-1.59063	432.875
212.7000	-1.15938	433.222
212.6000	-1.20271	433.551
212.5000	-1.24873	433.884
212.4000	-1.32	434.221
212.3000	-1.38169	434.555
212.2000	-1.35828	434.895
212.1000	-1.33673	435.237
212.0000	-1.22526	435.59
211.9000	-1.2844	435.941
211.8000	-1.34377	436.29
211.7000	-1.33027	436.647
211.6000	-1.31476	437.004
211.5000	-1.30802	437.365
211.4000	-1.21168	437.731
211.3000	-1.09635	438.099
211.2000	-1.10396	438.455
211.1000	-1.13747	438.813
211.0000	-1.14549	439.181
210.9000	-1.11243	439.547
210.8000	-1.03594	439.918
210.7000	-1.12004	440.294
210.6000	-1.01977	440.677
210.5000	-1.13603	441.061
210.4000	-1.18627	441.454
210.3000	-1.32487	441.852
210.2000	-1.61468	442.239
210.1000	-1.67161	442.643
210.0000	-1.58531	443.051
209.9000	-1.58641	443.458
209.8000	-1.58642	443.861
209.7000	-1.52044	444.267
209.6000	-1.52024	444.672
209.5000	-1.42131	445.086
209.4000	-1.23493	445.503
209.3000	-0.984383	445.924
209.2000	-1.06721	446.336
209.1000	-1.10188	446.75
209.0000	-0.96477	447.172
208.9000	-1.17838	447.592
208.8000	-1.29685	448.011
208.7000	-1.46203	448.432
208.6000	-1.43628	448.869
208.5000	-1.50854	449.304
208.4000	-1.58386	449.738
208.3000	-1.46329	450.184
208.2000	-1.52054	450.63
208.1000	-1.47183	451.08
208.0000	-1.45425	451.53
207.9000	-1.54678	451.98
207.8000	-1.58844	452.432
207.7000	-1.68803	452.882
207.6000	-1.74258	453.339
207.5000	-2.01632	453.792
207.4000	-2.15826	454.245
207.3000	-2.03783	454.709
207.2000	-2.02936	455.173
207.1000	-1.99392	455.636
207.0000	-2.01861	456.096
206.9000	-1.94089	456.562
206.8000	-1.69291	457.034
206.7000	-1.40895	457.506
206.6000	-1.28392	457.98
206.5000	-1.04645	458.46
206.4000	-1.00979	458.935
206.3000	-0.818028	459.423
206.2000	-0.58017	459.909
206.1000	-0.621158	460.391
206.0000	-0.877163	460.868
205.9000	-1.12072	461.347
205.8000	-1.08645	461.843
205.7000	-1.36514	462.33
205.6000	-1.41025	462.826
205.5000	-1.37677	463.329
205.4000	-1.30419	463.837
205.3000	-1.20271	464.353
205.2000	-0.824322	464.882
205.1000	-0.485031	465.415
205.0000	-0.245969	465.943
204.9000	-0.127203	466.471
204.8000	-0.000316565	467.003
204.7000	-0.0136461	467.535
204.6000	-0.200646	468.061
204.5000	-0.562	468.586
204.4000	-0.722144	469.118
204.3000	-1.19983	469.644
204.2000	-1.54731	470.183
204.1000	-1.74342	470.729
204.0000	-1.75231	471.282
203.9000	-1.8547	471.834
203.8000	-1.69394	472.394
203.7000	-1.39183	472.962
203.6000	-1.36146	473.529
203.5000	-1.3445	474.097
203.4000	-1.20278	474.674
203.3000	-0.926539	475.264
203.2000	-0.632824	475.859
203.1000	-0.464739	476.457
203.0000	-0.436601	477.058
202.9000	-0.414969	477.667
202.8000	-0.246544	478.277
202.7000	0.0771852	478.901
202.6000	0.35186	479.523
202.5000	0.430079	480.142
202.4000	0.48729	480.76
202.3000	0.558472	481.386
202.2000	0.758692	482.019
202.1000	0.569729	482.645
202.0000	0.36813	483.281
201.9000	0.0738601	483.92
201.8000	-0.0807801	484.576
201.7000	-0.00607146	485.246
201.6000	-0.217055	485.92
201.5000	-0.463286	486.599
201.4000	-0.531027	487.297
201.3000	-0.100225	488.02
201.2000	0.292024	488.747
201.1000	0.365572	489.476
201.0000	0.317031	490.212
200.9000	0.166531	490.951
200.8000	0.384839	491.723
200.7000	0.592467	492.503
200.6000	0.578552	493.288
200.5000	0.425815	494.085
200.4000	0.146523	494.899
200.3000	0.402797	495.746
200.2000	0.639969	496.603
200.1000	0.90778	497.467
200.0000	0.975838	498.327
199.9000	1.36143	499.202
199.8000	1.75805	500.077
199.7000	1.99905	500.945
199.6000	2.2222	501.813
199.5000	2.33194	502.677
199.4000	2.42779	503.54
199.3000	2.8282	504.416
199.2000	3.11871	505.296
199.1000	2.89501	506.167
199.0000	2.58854	507.047
198.9000	2.49022	507.949
198.8000	2.28783	508.859
198.7000	2.45973	509.8
198.6000	2.45603	510.754
198.5000	2.28244	511.731
198.4000	1.91851	512.713
198.3000	1.53448	513.708
198.2000	1.31859	514.728
198.1000	0.816483	515.757
198.0000	0.395245	516.813
197.9000	0.0902791	517.884
197.8000	-0.105069	518.967
197.7000	-0.245987	520.066
197.6000	0.0814937	521.19
197.5000	0.556158	522.336
197.4000	0.650738	523.466
197.3000	1.01996	524.596
197.2000	1.7099	525.7
197.1000	2.15262	526.765
197.0000	2.22992	527.798
196.9000	2.34755	528.812
196.8000	2.47553	529.815
196.7000	2.12373	530.805
196.6000	2.05004	531.816
196.5000	2.24168	532.862
196.4000	2.15423	533.957
196.3000	2.39434	535.132
196.2000	2.73841	536.373
196.1000	2.80163	537.67
196.0000	2.61157	539.034
195.9000	2.70376	540.498
195.8000	3.14347	542.071
195.7000	3.01546	543.749
195.6000	3.00996	545.547
195.5000	2.76292	547.47
195.4000	2.22575	549.496
195.3000	2.21326	551.637
195.2000	2.241	553.845
195.1000	2.17354	556.093
195.0000	1.92385	558.304
194.9000	1.93467	560.429
194.8000	1.91811	562.409
194.7000	1.646	564.226
194.6000	1.56937	565.918
194.5000	1.42924	567.498
194.4000	1.34089	569.015
194.3000	1.30017	570.486
194.2000	1.13776	571.988
194.1000	0.645147	573.601
194.0000	0.768675	575.415
193.9000	0.802363	577.462
193.8000	1.14184	579.774
193.7000	1.1891	582.382
193.6000	0.694315	585.293
193.5000	0.253201	588.565
193.4000	-0.16239	592.231
193.3000	-0.351383	596.325
193.2000	-1.00227	600.792
193.1000	-1.37648	605.624
193.0000	-1.99144	610.736
192.9000	-1.83048	616.051
192.8000	-0.581333	621.461
192.7000	0.00245362	626.758
192.6000	-0.200247	631.703
192.5000	-0.450171	636.159
192.4000	-0.348396	640.129
192.3000	-0.312748	643.633
192.2000	0.777673	646.742
192.1000	2.17761	649.51
192.0000	2.95591	652.036
191.9000	3.1752	654.506
191.8000	3.50211	657.224
191.7000	4.64828	660.474
191.6000	6.35286	664.355
191.5000	6.50903	668.848
191.4000	6.63255	674
191.3000	6.36516	679.932
191.2000	6.28934	686.677
191.1000	5.74147	694.245
191.0000	5.52828	702.574
190.9000	4.1531	711.51
190.8000	2.24861	720.982
190.7000	3.55493	731.016
190.6000	4.02607	741.343
190.5000	6.55914	751.792
190.4000	7.05313	761.914
190.3000	3.87497	771.438
190.2000	-0.253114	780.257
190.1000	-0.660926	788.502
190.0000	1	796.163

##### Extended Information
[Comments]
Sample name	ACE2_Cal_0.8uM
Comment
User
Division
Company	CSIR-IMTECH

[Detailed Information]
Creation date	4/9/2024 4:53 PM

Data array type	Linear data array * 2
Horizontal axis	Wavelength [nm]
Vertical axis(1)	CD [mdeg]
Vertical axis(2)	HT [V]
Start	350 nm
End	190 nm
Data interval	0.1 nm
Data points	1601    

[Measurement Information]
Instrument Name	JASCO CD
Model Name	J-815
Serial No.	B063061168

Accessory	PTC-423S
Accessory S/N	C013945-01
  Temperature	37.43 C
  Control Sonsor	Cell
  Monitor Sensor	Cell
  Start Mode	Start immediately
  Cell Length	10 mm

Measurement date	4/9/2024 4:52 PM

Photometric Mode	CD, HT
Measure Range	350 - 190 nm
Data pitch	0.1 nm
Sensitivity	Standard
D.I.T.	1 sec
Bandwidth	1.00 nm
Start Mode	Immediately
Scanning Speed	50 nm/min
Baseline Correction	None
Shutter Control	Auto
CD Detector	PMT
PMT Voltage	Auto
Accumulations	3
Concentration	0.8 umol/L

