TITLE	ACE2_Cal_0.8uM
DATA TYPE	
ORIGIN	JASCO
OWNER	
DATE	24/04/09
TIME	16:53:45
SPECTROMETER/DATA SYSTEM	
LOCALE	1033
RESOLUTION	
DELTAX	-0.1
XUNITS	NANOMETERS
YUNITS	Mol. Ellip.
Y2UNITS	HT [V]
FIRSTX	  350.0000
LASTX	  190.0000
NPOINTS	    1601
FIRSTY	-1177152.87500
MAXY	8816413.00000
MINY	-3427709.00000
XYDATA
350.0000	-1.17715E+006	480.857
349.9000	-1.09473E+006	480.272
349.8000	-1.14319E+006	479.377
349.7000	-1.07258E+006	478.468
349.6000	-830049	477.825
349.5000	-542261	477.269
349.4000	-451418	476.421
349.3000	-537141	475.813
349.2000	-719441	475.29
349.1000	-1.03161E+006	474.442
349.0000	-1.23941E+006	473.825
348.9000	-1.46044E+006	473.287
348.8000	-1.51954E+006	472.469
348.7000	-1.71517E+006	471.637
348.6000	-1.93478E+006	471.031
348.5000	-1.72399E+006	470.506
348.4000	-1.58809E+006	469.642
348.3000	-1.60979E+006	469.009
348.2000	-1.51191E+006	468.457
348.1000	-1.26319E+006	467.625
348.0000	-1.28407E+006	466.993
347.9000	-1.43822E+006	466.427
347.8000	-1.52396E+006	465.579
347.7000	-1.61538E+006	464.722
347.6000	-1.48819E+006	464.118
347.5000	-1.40347E+006	463.613
347.4000	-1.24293E+006	462.841
347.3000	-1.10641E+006	462.263
347.2000	-970217	461.774
347.1000	-858346	461.013
347.0000	-780677	460.457
346.9000	-652321	459.981
346.8000	-486238	459.245
346.7000	-584780	458.491
346.6000	-358423	457.936
346.5000	-183863	457.179
346.4000	-370902	456.392
346.3000	-423629	455.798
346.2000	-215534	455.047
346.1000	-159427	454.273
346.0000	-527271	453.684
345.9000	-829367	453.165
345.8000	-1.00666E+006	452.371
345.7000	-1.5237E+006	451.782
345.6000	-1.77444E+006	451.292
345.5000	-1.81115E+006	450.595
345.4000	-1.82796E+006	450.084
345.3000	-2.03529E+006	449.649
345.2000	-1.93783E+006	448.966
345.1000	-1.6886E+006	448.286
345.0000	-1.4231E+006	447.799
344.9000	-1.13264E+006	447.169
344.8000	-602545	446.527
344.7000	-404343	446.022
344.6000	-277767	445.363
344.5000	-273069	444.686
344.4000	-353346	444.185
344.3000	-251254	443.512
344.2000	-339762	442.816
344.1000	-446332	442.286
344.0000	-804782	441.619
343.9000	-982176	440.952
343.8000	-1.05218E+006	440.464
343.7000	-1.05536E+006	440.042
343.6000	-936385	439.396
343.5000	-948731	438.936
343.4000	-929656	438.558
343.3000	-727710	437.953
343.2000	-536673	437.504
343.1000	-310334	437.112
343.0000	-33084.7	436.53
342.9000	90680	435.931
342.8000	324489	435.491
342.7000	494945	434.891
342.6000	607931	434.275
342.5000	424521	433.81
342.4000	252377	433.231
342.3000	131461	432.649
342.2000	-46074.7	432.202
342.1000	-209880	431.625
342.0000	-301224	431.045
341.9000	-280683	430.638
341.8000	-368833	430.083
341.7000	-294262	429.524
341.6000	19546.1	429.117
341.5000	183711	428.597
341.4000	107902	428.063
341.3000	-52533.1	427.662
341.2000	-134102	427.106
341.1000	-491531	426.525
341.0000	-654811	426.099
340.9000	-763759	425.565
340.8000	-982697	425.017
340.7000	-1.25436E+006	424.587
340.6000	-1.45128E+006	424.041
340.5000	-1.30612E+006	423.499
340.4000	-1.05878E+006	423.114
340.3000	-877067	422.605
340.2000	-800796	422.092
340.1000	-913276	421.708
340.0000	-793651	421.23
339.9000	-857308	420.745
339.8000	-842793	420.386
339.7000	-738500	419.927
339.6000	-807163	419.455
339.5000	-897043	419.126
339.4000	-913281	418.676
339.3000	-899289	418.206
339.2000	-788752	417.699
339.1000	-813448	417.238
339.0000	-706348	416.765
338.9000	-787255	416.222
338.8000	-971833	415.724
338.7000	-841989	415.231
338.6000	-677751	414.694
338.5000	-579068	414.222
338.4000	-483711	413.869
338.3000	-496617	413.423
338.2000	-514870	412.972
338.1000	-466574	412.658
338.0000	-392476	412.247
337.9000	-489518	411.827
337.8000	-711354	411.531
337.7000	-732769	411.146
337.6000	-769705	410.751
337.5000	-751114	410.452
337.4000	-673605	410.068
337.3000	-439392	409.675
337.2000	-295836	409.22
337.1000	-94753.4	408.813
337.0000	-1157.83	408.392
336.9000	-118806	407.943
336.8000	-241462	407.547
336.7000	-227376	407.147
336.6000	-317663	406.699
336.5000	-495165	406.289
336.4000	-616311	406.005
336.3000	-770215	405.615
336.2000	-953804	405.211
336.1000	-939338	404.91
336.0000	-754795	404.53
335.9000	-804899	404.132
335.8000	-904946	403.7
335.7000	-921401	403.313
335.6000	-984080	402.919
335.5000	-1.03097E+006	402.515
335.4000	-951608	402.174
335.3000	-1.12126E+006	401.822
335.2000	-1.31613E+006	401.447
335.1000	-1.38036E+006	401.115
335.0000	-1.27139E+006	400.902
334.9000	-1.10913E+006	400.589
334.8000	-1.08305E+006	400.256
334.7000	-1.04861E+006	399.892
334.6000	-957865	399.575
334.5000	-690605	399.258
334.4000	-397937	398.878
334.3000	-161864	398.526
334.2000	66888.8	398.163
334.1000	16400.7	397.767
334.0000	62400.3	397.428
333.9000	230577	397.184
333.8000	255924	396.85
333.7000	275644	396.507
333.6000	72281.9	396.128
333.5000	-133379	395.805
333.4000	-350170	395.48
333.3000	-373149	395.14
333.2000	-468769	394.842
333.1000	-762232	394.533
333.0000	-891660	394.204
332.9000	-981665	393.906
332.8000	-931376	393.574
332.7000	-788338	393.283
332.6000	-770461	392.981
332.5000	-776907	392.653
332.4000	-918252	392.36
332.3000	-827969	392.065
332.2000	-759034	391.725
332.1000	-774516	391.416
332.0000	-757278	391.092
331.9000	-840904	390.819
331.8000	-1.04622E+006	390.539
331.7000	-1.07561E+006	390.224
331.6000	-943697	389.939
331.5000	-757108	389.537
331.4000	-797972	389.219
331.3000	-714288	388.946
331.2000	-758765	388.638
331.1000	-805093	388.362
331.0000	-787021	388.076
330.9000	-727584	387.787
330.8000	-726755	387.531
330.7000	-844252	387.239
330.6000	-916292	386.981
330.5000	-966801	386.721
330.4000	-1.09854E+006	386.439
330.3000	-1.09167E+006	386.2
330.2000	-1.0632E+006	385.852
330.1000	-1.07443E+006	385.568
330.0000	-1.15809E+006	385.311
329.9000	-1.15137E+006	385.029
329.8000	-959608	384.788
329.7000	-833363	384.456
329.6000	-703149	384.199
329.5000	-623842	383.967
329.4000	-633481	383.683
329.3000	-640972	383.431
329.2000	-617284	383.08
329.1000	-551207	382.811
329.0000	-547698	382.58
328.9000	-697718	382.319
328.8000	-854063	382.079
328.7000	-993055	381.742
328.6000	-957435	381.502
328.5000	-846358	381.307
328.4000	-914134	381.06
328.3000	-834213	380.843
328.2000	-903308	380.546
328.1000	-997756	380.31
328.0000	-907506	380.107
327.9000	-895167	379.855
327.8000	-945864	379.625
327.7000	-1.06E+006	379.361
327.6000	-963166	379.19
327.5000	-957052	379.057
327.4000	-1.05135E+006	378.797
327.3000	-985399	378.556
327.2000	-1.04939E+006	378.263
327.1000	-1.1256E+006	378.053
327.0000	-1.13917E+006	377.885
326.9000	-1.07138E+006	377.625
326.8000	-1.1048E+006	377.353
326.7000	-1.18736E+006	377.035
326.6000	-1.20238E+006	376.842
326.5000	-1.22368E+006	376.712
326.4000	-1.30845E+006	376.466
326.3000	-1.31529E+006	376.227
326.2000	-1.15916E+006	375.972
326.1000	-1.06272E+006	375.799
326.0000	-1.04185E+006	375.507
325.9000	-1.06882E+006	375.238
325.8000	-1.10854E+006	374.979
325.7000	-974211	374.74
325.6000	-978960	374.605
325.5000	-915669	374.325
325.4000	-922226	374.049
325.3000	-1.01245E+006	373.77
325.2000	-1.07019E+006	373.599
325.1000	-907344	373.49
325.0000	-759755	373.233
324.9000	-759718	372.958
324.8000	-744867	372.663
324.7000	-621113	372.517
324.6000	-573581	372.444
324.5000	-503922	372.196
324.4000	-343671	371.949
324.3000	-429377	371.708
324.2000	-518852	371.571
324.1000	-500080	371.316
324.0000	-518171	371.06
323.9000	-480830	370.798
323.8000	-454345	370.55
323.7000	-480769	370.421
323.6000	-657934	370.158
323.5000	-744626	369.879
323.4000	-758335	369.606
323.3000	-874770	369.461
323.2000	-908325	369.376
323.1000	-970583	369.132
323.0000	-1.11667E+006	368.869
322.9000	-1.10115E+006	368.6
322.8000	-927238	368.464
322.7000	-807109	368.228
322.6000	-855317	367.965
322.5000	-875340	367.699
322.4000	-926819	367.432
322.3000	-929487	367.268
322.2000	-909758	366.978
322.1000	-928494	366.671
322.0000	-1.03039E+006	366.375
321.9000	-1.15352E+006	366.199
321.8000	-1.11305E+006	365.927
321.7000	-1.03283E+006	365.644
321.6000	-885194	365.354
321.5000	-802845	365.084
321.4000	-778771	364.95
321.3000	-691910	364.761
321.2000	-684781	364.564
321.1000	-639136	364.365
321.0000	-622532	364.295
320.9000	-648872	364.15
320.8000	-582809	364.009
320.7000	-619980	363.869
320.6000	-562249	363.726
320.5000	-551264	363.679
320.4000	-572234	363.516
320.3000	-652275	363.349
320.2000	-656539	363.195
320.1000	-534782	363.146
320.0000	-709588	362.996
319.9000	-887898	362.829
319.8000	-951425	362.65
319.7000	-963863	362.466
319.6000	-973378	362.268
319.5000	-852777	362.122
319.4000	-700225	361.958
319.3000	-747711	361.75
319.2000	-654575	361.641
319.1000	-601766	361.442
319.0000	-608016	361.237
318.9000	-690291	361.025
318.8000	-737623	360.9
318.7000	-885818	360.676
318.6000	-999690	360.446
318.5000	-1.12766E+006	360.245
318.4000	-1.16296E+006	360.054
318.3000	-1.12573E+006	359.849
318.2000	-1.07436E+006	359.698
318.1000	-1.07895E+006	359.547
318.0000	-1.06921E+006	359.374
317.9000	-944445	359.307
317.8000	-815468	359.192
317.7000	-710446	359.061
317.6000	-658156	358.891
317.5000	-605268	358.798
317.4000	-551912	358.645
317.3000	-555242	358.482
317.2000	-585995	358.306
317.1000	-578976	358.128
317.0000	-667921	357.895
316.9000	-798372	357.693
316.8000	-878809	357.506
316.7000	-1.02958E+006	357.321
316.6000	-1.19303E+006	357.135
316.5000	-1.19204E+006	356.983
316.4000	-1.11953E+006	356.815
316.3000	-1.08115E+006	356.646
316.2000	-1.07933E+006	356.486
316.1000	-1.09781E+006	356.37
316.0000	-1.07945E+006	356.261
315.9000	-983398	356.111
315.8000	-920070	356.014
315.7000	-903423	355.857
315.6000	-933956	355.731
315.5000	-1.02518E+006	355.578
315.4000	-1.0546E+006	355.479
315.3000	-1.02418E+006	355.298
315.2000	-1.02865E+006	355.103
315.1000	-1.04828E+006	354.927
315.0000	-933782	354.764
314.9000	-901822	354.592
314.8000	-845276	354.44
314.7000	-757930	354.279
314.6000	-658120	354.126
314.5000	-619372	353.98
314.4000	-537309	353.877
314.3000	-539943	353.742
314.2000	-628889	353.605
314.1000	-776731	353.432
314.0000	-801521	353.286
313.9000	-848426	353.134
313.8000	-944427	352.987
313.7000	-918571	352.79
313.6000	-984874	352.607
313.5000	-1.01324E+006	352.432
313.4000	-1.09798E+006	352.263
313.3000	-1.1596E+006	352.098
313.2000	-1.13014E+006	351.962
313.1000	-1.19563E+006	351.809
313.0000	-1.23013E+006	351.664
312.9000	-1.28999E+006	351.529
312.8000	-1.31525E+006	351.432
312.7000	-1.31101E+006	351.307
312.6000	-1.30535E+006	351.189
312.5000	-1.24044E+006	351.043
312.4000	-1.26353E+006	350.906
312.3000	-1.26899E+006	350.747
312.2000	-1.24458E+006	350.59
312.1000	-1.21793E+006	350.386
312.0000	-1.27972E+006	350.189
311.9000	-1.32536E+006	350.002
311.8000	-1.36542E+006	349.781
311.7000	-1.35285E+006	349.602
311.6000	-1.30676E+006	349.415
311.5000	-1.25121E+006	349.267
311.4000	-1.34768E+006	349.081
311.3000	-1.40546E+006	348.962
311.2000	-1.41884E+006	348.842
311.1000	-1.41426E+006	348.743
311.0000	-1.36723E+006	348.639
310.9000	-1.24807E+006	348.554
310.8000	-1.25338E+006	348.45
310.7000	-1.30694E+006	348.359
310.6000	-1.22669E+006	348.244
310.5000	-1.11663E+006	348.147
310.4000	-1.01016E+006	348.052
310.3000	-979049	347.97
310.2000	-969343	347.888
310.1000	-995400	347.82
310.0000	-1.01724E+006	347.746
309.9000	-965941	347.686
309.8000	-955662	347.627
309.7000	-888943	347.543
309.6000	-848887	347.474
309.5000	-833683	347.367
309.4000	-768280	347.283
309.3000	-773986	347.152
309.2000	-708451	347.049
309.1000	-643914	346.895
309.0000	-607222	346.766
308.9000	-606275	346.65
308.8000	-771399	346.544
308.7000	-900808	346.446
308.6000	-878333	346.367
308.5000	-818048	346.28
308.4000	-875880	346.178
308.3000	-960703	346.115
308.2000	-1.07433E+006	346.014
308.1000	-1.21447E+006	345.94
308.0000	-1.25272E+006	345.847
307.9000	-1.21225E+006	345.771
307.8000	-1.16319E+006	345.644
307.7000	-1.1703E+006	345.546
307.6000	-1.15956E+006	345.432
307.5000	-1.13844E+006	345.279
307.4000	-1.07553E+006	345.167
307.3000	-966832	345.054
307.2000	-832562	344.965
307.1000	-743100	344.837
307.0000	-774549	344.751
306.9000	-926301	344.658
306.8000	-1.03032E+006	344.6
306.7000	-1.09397E+006	344.54
306.6000	-1.166E+006	344.455
306.5000	-1.20733E+006	344.383
306.4000	-1.18523E+006	344.269
306.3000	-1.18347E+006	344.189
306.2000	-1.19732E+006	344.078
306.1000	-1.187E+006	343.98
306.0000	-1.16816E+006	343.847
305.9000	-1.13438E+006	343.752
305.8000	-1.11342E+006	343.686
305.7000	-1.06561E+006	343.582
305.6000	-1.06223E+006	343.513
305.5000	-1.10385E+006	343.441
305.4000	-1.197E+006	343.396
305.3000	-1.20118E+006	343.307
305.2000	-1.11908E+006	343.248
305.1000	-1.04764E+006	343.18
305.0000	-1.00595E+006	343.068
304.9000	-964193	342.999
304.8000	-982465	342.91
304.7000	-991770	342.83
304.6000	-1.06807E+006	342.71
304.5000	-1.0232E+006	342.617
304.4000	-957011	342.547
304.3000	-886062	342.444
304.2000	-818505	342.387
304.1000	-768895	342.329
304.0000	-800646	342.292
303.9000	-833538	342.212
303.8000	-739845	342.143
303.7000	-771848	342.098
303.6000	-773235	342.003
303.5000	-868131	341.94
303.4000	-949207	341.862
303.3000	-1.04949E+006	341.759
303.2000	-1.07958E+006	341.66
303.1000	-1.04833E+006	341.585
303.0000	-1.16595E+006	341.541
302.9000	-1.23694E+006	341.456
302.8000	-1.19525E+006	341.39
302.7000	-1.24236E+006	341.338
302.6000	-1.30968E+006	341.253
302.5000	-1.29061E+006	341.215
302.4000	-1.26435E+006	341.169
302.3000	-1.29513E+006	341.086
302.2000	-1.25408E+006	341.006
302.1000	-1.13581E+006	340.933
302.0000	-1.10421E+006	340.886
301.9000	-1.15502E+006	340.806
301.8000	-1.15118E+006	340.744
301.7000	-1.126E+006	340.694
301.6000	-1.13316E+006	340.613
301.5000	-1.05823E+006	340.57
301.4000	-999597	340.525
301.3000	-943939	340.456
301.2000	-941490	340.394
301.1000	-923266	340.341
301.0000	-860539	340.318
300.9000	-836029	340.255
300.8000	-866569	340.187
300.7000	-959785	340.133
300.6000	-1.04936E+006	340.061
300.5000	-1.11461E+006	340.002
300.4000	-1.12826E+006	339.962
300.3000	-1.18324E+006	339.895
300.2000	-1.21256E+006	339.833
300.1000	-1.26527E+006	339.781
300.0000	-1.38154E+006	339.724
299.9000	-1.35397E+006	339.68
299.8000	-1.28827E+006	339.638
299.7000	-1.18147E+006	339.585
299.6000	-1.13147E+006	339.534
299.5000	-1.07391E+006	339.482
299.4000	-965594	339.444
299.3000	-967560	339.385
299.2000	-823187	339.346
299.1000	-821582	339.315
299.0000	-838816	339.261
298.9000	-957277	339.218
298.8000	-1.08774E+006	339.186
298.7000	-1.17198E+006	339.136
298.6000	-1.23825E+006	339.093
298.5000	-1.29919E+006	339.049
298.4000	-1.30016E+006	338.993
298.3000	-1.28881E+006	338.947
298.2000	-1.30005E+006	338.896
298.1000	-1.30769E+006	338.842
298.0000	-1.24942E+006	338.797
297.9000	-1.23084E+006	338.758
297.8000	-1.28579E+006	338.697
297.7000	-1.30088E+006	338.651
297.6000	-1.33578E+006	338.62
297.5000	-1.3713E+006	338.563
297.4000	-1.28056E+006	338.528
297.3000	-1.24255E+006	338.499
297.2000	-1.26582E+006	338.443
297.1000	-1.26003E+006	338.401
297.0000	-1.20917E+006	338.363
296.9000	-1.27021E+006	338.302
296.8000	-1.23525E+006	338.256
296.7000	-1.24796E+006	338.22
296.6000	-1.30058E+006	338.196
296.5000	-1.27809E+006	338.159
296.4000	-1.22378E+006	338.133
296.3000	-1.16246E+006	338.115
296.2000	-1.17753E+006	338.082
296.1000	-1.14081E+006	338.06
296.0000	-1.12565E+006	338.045
295.9000	-1.10365E+006	338.012
295.8000	-1.1155E+006	337.956
295.7000	-1.18383E+006	337.922
295.6000	-1.35268E+006	337.881
295.5000	-1.48716E+006	337.824
295.4000	-1.51228E+006	337.762
295.3000	-1.4934E+006	337.727
295.2000	-1.50452E+006	337.678
295.1000	-1.59298E+006	337.617
295.0000	-1.63801E+006	337.587
294.9000	-1.64981E+006	337.542
294.8000	-1.62751E+006	337.486
294.7000	-1.56167E+006	337.457
294.6000	-1.55584E+006	337.434
294.5000	-1.55105E+006	337.395
294.4000	-1.503E+006	337.369
294.3000	-1.4768E+006	337.347
294.2000	-1.39384E+006	337.311
294.1000	-1.35725E+006	337.287
294.0000	-1.29524E+006	337.272
293.9000	-1.31744E+006	337.234
293.8000	-1.28395E+006	337.211
293.7000	-1.25825E+006	337.19
293.6000	-1.29253E+006	337.146
293.5000	-1.32092E+006	337.094
293.4000	-1.31793E+006	337.071
293.3000	-1.3645E+006	337.032
293.2000	-1.38403E+006	336.984
293.1000	-1.40521E+006	336.967
293.0000	-1.43515E+006	336.929
292.9000	-1.476E+006	336.886
292.8000	-1.59285E+006	336.87
292.7000	-1.63395E+006	336.855
292.6000	-1.62425E+006	336.827
292.5000	-1.55428E+006	336.785
292.4000	-1.48567E+006	336.768
292.3000	-1.45289E+006	336.729
292.2000	-1.43294E+006	336.687
292.1000	-1.40157E+006	336.67
292.0000	-1.31528E+006	336.638
291.9000	-1.2428E+006	336.594
291.8000	-1.23666E+006	336.555
291.7000	-1.23199E+006	336.542
291.6000	-1.19978E+006	336.507
291.5000	-1.14277E+006	336.469
291.4000	-1.03624E+006	336.455
291.3000	-978032	336.414
291.2000	-902666	336.36
291.1000	-913586	336.301
291.0000	-911680	336.26
290.9000	-834311	336.199
290.8000	-823443	336.117
290.7000	-845224	336.029
290.6000	-844327	335.933
290.5000	-796822	335.816
290.4000	-770931	335.693
290.3000	-714686	335.59
290.2000	-588949	335.465
290.1000	-613104	335.324
290.0000	-622975	335.196
289.9000	-652876	335.107
289.8000	-729611	335.023
289.7000	-886292	334.96
289.6000	-1.07039E+006	334.932
289.5000	-1.15777E+006	334.945
289.4000	-1.31709E+006	334.983
289.3000	-1.38688E+006	335.056
289.2000	-1.38765E+006	335.154
289.1000	-1.39996E+006	335.273
289.0000	-1.4024E+006	335.387
288.9000	-1.37763E+006	335.502
288.8000	-1.30417E+006	335.609
288.7000	-1.2454E+006	335.708
288.6000	-1.18078E+006	335.781
288.5000	-1.15456E+006	335.835
288.4000	-1.18893E+006	335.871
288.3000	-1.25726E+006	335.895
288.2000	-1.25575E+006	335.9
288.1000	-1.25961E+006	335.899
288.0000	-1.27248E+006	335.887
287.9000	-1.31322E+006	335.857
287.8000	-1.37938E+006	335.841
287.7000	-1.39728E+006	335.825
287.6000	-1.35401E+006	335.812
287.5000	-1.35782E+006	335.787
287.4000	-1.35855E+006	335.779
287.3000	-1.32988E+006	335.775
287.2000	-1.29858E+006	335.77
287.1000	-1.21973E+006	335.768
287.0000	-1.17242E+006	335.743
286.9000	-1.10507E+006	335.734
286.8000	-1.12951E+006	335.728
286.7000	-1.06421E+006	335.722
286.6000	-1.01696E+006	335.703
286.5000	-971983	335.701
286.4000	-881883	335.702
286.3000	-880500	335.708
286.2000	-834682	335.713
286.1000	-826484	335.71
286.0000	-792671	335.72
285.9000	-846190	335.717
285.8000	-870934	335.721
285.7000	-891216	335.704
285.6000	-1.02482E+006	335.684
285.5000	-1.07478E+006	335.687
285.4000	-1.10711E+006	335.689
285.3000	-1.12223E+006	335.699
285.2000	-1.17256E+006	335.681
285.1000	-1.17317E+006	335.674
285.0000	-1.223E+006	335.686
284.9000	-1.29662E+006	335.688
284.8000	-1.31025E+006	335.697
284.7000	-1.31284E+006	335.682
284.6000	-1.34073E+006	335.672
284.5000	-1.40008E+006	335.684
284.4000	-1.40591E+006	335.697
284.3000	-1.41386E+006	335.72
284.2000	-1.33578E+006	335.716
284.1000	-1.2969E+006	335.72
284.0000	-1.21772E+006	335.712
283.9000	-1.19227E+006	335.726
283.8000	-1.17731E+006	335.743
283.7000	-1.20577E+006	335.737
283.6000	-1.19152E+006	335.735
283.5000	-1.23216E+006	335.724
283.4000	-1.31658E+006	335.721
283.3000	-1.38053E+006	335.737
283.2000	-1.35246E+006	335.758
283.1000	-1.36804E+006	335.776
283.0000	-1.41684E+006	335.778
282.9000	-1.3956E+006	335.786
282.8000	-1.34571E+006	335.792
282.7000	-1.26559E+006	335.816
282.6000	-1.21303E+006	335.84
282.5000	-1.15197E+006	335.85
282.4000	-1.21736E+006	335.855
282.3000	-1.2635E+006	335.857
282.2000	-1.27774E+006	335.861
282.1000	-1.29152E+006	335.885
282.0000	-1.3144E+006	335.91
281.9000	-1.28718E+006	335.924
281.8000	-1.28496E+006	335.929
281.7000	-1.21179E+006	335.934
281.6000	-1.14044E+006	335.941
281.5000	-1.16701E+006	335.944
281.4000	-1.18093E+006	335.97
281.3000	-1.1527E+006	335.981
281.2000	-1.12211E+006	335.983
281.1000	-1.23418E+006	335.98
281.0000	-1.31669E+006	335.98
280.9000	-1.35204E+006	335.985
280.8000	-1.26959E+006	335.988
280.7000	-1.17282E+006	335.996
280.6000	-1.07664E+006	336.007
280.5000	-1.07392E+006	336.007
280.4000	-1.0377E+006	336.007
280.3000	-939381	336.006
280.2000	-961025	336.003
280.1000	-1.02282E+006	336.001
280.0000	-1.19051E+006	335.996
279.9000	-1.32605E+006	335.993
279.8000	-1.33096E+006	335.978
279.7000	-1.31947E+006	335.979
279.6000	-1.31373E+006	335.978
279.5000	-1.42342E+006	335.982
279.4000	-1.40292E+006	335.99
279.3000	-1.34567E+006	335.999
279.2000	-1.28193E+006	336.011
279.1000	-1.22795E+006	336.022
279.0000	-1.29195E+006	336.032
278.9000	-1.37638E+006	336.032
278.8000	-1.39483E+006	336.05
278.7000	-1.39874E+006	336.069
278.6000	-1.42746E+006	336.083
278.5000	-1.46079E+006	336.099
278.4000	-1.43744E+006	336.112
278.3000	-1.43983E+006	336.128
278.2000	-1.37263E+006	336.144
278.1000	-1.33435E+006	336.157
278.0000	-1.30076E+006	336.157
277.9000	-1.32176E+006	336.153
277.8000	-1.30908E+006	336.158
277.7000	-1.33205E+006	336.167
277.6000	-1.32434E+006	336.196
277.5000	-1.3439E+006	336.223
277.4000	-1.37837E+006	336.248
277.3000	-1.34436E+006	336.276
277.2000	-1.4017E+006	336.302
277.1000	-1.40431E+006	336.327
277.0000	-1.30567E+006	336.349
276.9000	-1.18717E+006	336.37
276.8000	-1.13197E+006	336.373
276.7000	-1.13248E+006	336.37
276.6000	-1.19302E+006	336.367
276.5000	-1.23891E+006	336.368
276.4000	-1.18262E+006	336.371
276.3000	-1.15282E+006	336.376
276.2000	-1.25426E+006	336.378
276.1000	-1.38242E+006	336.385
276.0000	-1.44742E+006	336.414
275.9000	-1.41606E+006	336.443
275.8000	-1.39456E+006	336.471
275.7000	-1.36301E+006	336.497
275.6000	-1.36495E+006	336.527
275.5000	-1.32724E+006	336.556
275.4000	-1.275E+006	336.588
275.3000	-1.26451E+006	336.617
275.2000	-1.28221E+006	336.63
275.1000	-1.32125E+006	336.642
275.0000	-1.26619E+006	336.658
274.9000	-1.15788E+006	336.678
274.8000	-1.06874E+006	336.695
274.7000	-1.0496E+006	336.71
274.6000	-1.02299E+006	336.723
274.5000	-1.00363E+006	336.739
274.4000	-956030	336.752
274.3000	-896035	336.767
274.2000	-852037	336.779
274.1000	-879650	336.793
274.0000	-1.01324E+006	336.802
273.9000	-1.07755E+006	336.816
273.8000	-1.18343E+006	336.831
273.7000	-1.15119E+006	336.851
273.6000	-1.09295E+006	336.874
273.5000	-996377	336.9
273.4000	-1.01776E+006	336.92
273.3000	-1.07878E+006	336.937
273.2000	-1.14073E+006	336.953
273.1000	-1.22435E+006	336.975
273.0000	-1.28415E+006	336.996
272.9000	-1.34736E+006	337.016
272.8000	-1.42634E+006	337.03
272.7000	-1.51499E+006	337.045
272.6000	-1.55663E+006	337.059
272.5000	-1.57893E+006	337.079
272.4000	-1.483E+006	337.105
272.3000	-1.3224E+006	337.128
272.2000	-1.22298E+006	337.147
272.1000	-1.10026E+006	337.163
272.0000	-1.06737E+006	337.18
271.9000	-1.02965E+006	337.201
271.8000	-1.00836E+006	337.222
271.7000	-971628	337.249
271.6000	-947067	337.271
271.5000	-1.01464E+006	337.288
271.4000	-1.04344E+006	337.306
271.3000	-1.06723E+006	337.33
271.2000	-1.06977E+006	337.352
271.1000	-1.06924E+006	337.372
271.0000	-1.0839E+006	337.388
270.9000	-1.03658E+006	337.382
270.8000	-1.01653E+006	337.37
270.7000	-938858	337.362
270.6000	-936189	337.357
270.5000	-893285	337.35
270.4000	-758009	337.343
270.3000	-708812	337.331
270.2000	-622974	337.325
270.1000	-605487	337.329
270.0000	-543783	337.345
269.9000	-523198	337.364
269.8000	-438345	337.388
269.7000	-465852	337.407
269.6000	-565425	337.426
269.5000	-601740	337.444
269.4000	-674082	337.448
269.3000	-695485	337.46
269.2000	-712757	337.479
269.1000	-681280	337.508
269.0000	-700630	337.532
268.9000	-697542	337.558
268.8000	-666936	337.584
268.7000	-682421	337.625
268.6000	-710072	337.675
268.5000	-728655	337.73
268.4000	-801563	337.777
268.3000	-910051	337.808
268.2000	-1.02023E+006	337.846
268.1000	-1.08045E+006	337.877
268.0000	-1.02366E+006	337.927
267.9000	-933773	337.972
267.8000	-854522	338.024
267.7000	-872597	338.073
267.6000	-876644	338.129
267.5000	-922026	338.185
267.4000	-880777	338.224
267.3000	-892134	338.268
267.2000	-991588	338.306
267.1000	-1.15494E+006	338.347
267.0000	-1.27543E+006	338.387
266.9000	-1.2713E+006	338.435
266.8000	-1.23756E+006	338.478
266.7000	-1.20505E+006	338.512
266.6000	-1.20458E+006	338.567
266.5000	-1.25928E+006	338.626
266.4000	-1.21584E+006	338.689
266.3000	-1.1185E+006	338.746
266.2000	-1.0312E+006	338.802
266.1000	-945725	338.853
266.0000	-984019	338.892
265.9000	-1.01784E+006	338.949
265.8000	-971868	339.008
265.7000	-922895	339.068
265.6000	-884289	339.133
265.5000	-957648	339.198
265.4000	-1.02597E+006	339.252
265.3000	-1.12198E+006	339.302
265.2000	-1.19716E+006	339.368
265.1000	-1.19653E+006	339.44
265.0000	-1.25937E+006	339.513
264.9000	-1.38114E+006	339.586
264.8000	-1.42604E+006	339.639
264.7000	-1.42286E+006	339.697
264.6000	-1.35906E+006	339.768
264.5000	-1.1998E+006	339.853
264.4000	-1.08957E+006	339.931
264.3000	-989822	339.994
264.2000	-913426	340.061
264.1000	-791404	340.126
264.0000	-702772	340.203
263.9000	-671926	340.28
263.8000	-684829	340.342
263.7000	-773629	340.402
263.6000	-753660	340.474
263.5000	-732541	340.558
263.4000	-808278	340.639
263.3000	-815844	340.71
263.2000	-848731	340.785
263.1000	-903196	340.863
263.0000	-908384	340.952
262.9000	-848923	341.034
262.8000	-948083	341.116
262.7000	-1.06358E+006	341.194
262.6000	-1.03799E+006	341.278
262.5000	-1.00082E+006	341.37
262.4000	-1.02021E+006	341.445
262.3000	-985232	341.518
262.2000	-963991	341.59
262.1000	-972045	341.677
262.0000	-1.07149E+006	341.744
261.9000	-1.06133E+006	341.813
261.8000	-1.13709E+006	341.878
261.7000	-1.26073E+006	341.927
261.6000	-1.30827E+006	341.992
261.5000	-1.3465E+006	342.076
261.4000	-1.36011E+006	342.165
261.3000	-1.33504E+006	342.246
261.2000	-1.29846E+006	342.341
261.1000	-1.26303E+006	342.434
261.0000	-1.33617E+006	342.529
260.9000	-1.39044E+006	342.619
260.8000	-1.34942E+006	342.716
260.7000	-1.34469E+006	342.808
260.6000	-1.3872E+006	342.887
260.5000	-1.40553E+006	342.973
260.4000	-1.35754E+006	343.066
260.3000	-1.35375E+006	343.159
260.2000	-1.26953E+006	343.238
260.1000	-1.19696E+006	343.325
260.0000	-1.18168E+006	343.421
259.9000	-1.20914E+006	343.5
259.8000	-1.2466E+006	343.586
259.7000	-1.25476E+006	343.673
259.6000	-1.28763E+006	343.742
259.5000	-1.29629E+006	343.813
259.4000	-1.24111E+006	343.899
259.3000	-1.24685E+006	343.981
259.2000	-1.25318E+006	344.068
259.1000	-1.18928E+006	344.165
259.0000	-1.11171E+006	344.255
258.9000	-1.13774E+006	344.341
258.8000	-1.17022E+006	344.439
258.7000	-1.20025E+006	344.529
258.6000	-1.25719E+006	344.625
258.5000	-1.27972E+006	344.734
258.4000	-1.19882E+006	344.834
258.3000	-1.20194E+006	344.934
258.2000	-1.28269E+006	345.039
258.1000	-1.33977E+006	345.138
258.0000	-1.28247E+006	345.249
257.9000	-1.19493E+006	345.373
257.8000	-1.20394E+006	345.481
257.7000	-1.22067E+006	345.581
257.6000	-1.21374E+006	345.691
257.5000	-1.20123E+006	345.796
257.4000	-1.16557E+006	345.898
257.3000	-997864	345.993
257.2000	-916440	346.079
257.1000	-985266	346.161
257.0000	-993289	346.25
256.9000	-884111	346.35
256.8000	-865095	346.43
256.7000	-812617	346.518
256.6000	-780476	346.612
256.5000	-819701	346.706
256.4000	-801379	346.811
256.3000	-743059	346.903
256.2000	-762417	346.987
256.1000	-832562	347.073
256.0000	-856948	347.167
255.9000	-809136	347.266
255.8000	-807685	347.353
255.7000	-822273	347.45
255.6000	-899607	347.549
255.5000	-916564	347.648
255.4000	-866849	347.758
255.3000	-830021	347.847
255.2000	-865917	347.94
255.1000	-959037	348.026
255.0000	-1.04721E+006	348.123
254.9000	-1.16894E+006	348.212
254.8000	-1.16973E+006	348.31
254.7000	-1.17957E+006	348.422
254.6000	-1.16243E+006	348.525
254.5000	-1.11087E+006	348.639
254.4000	-984327	348.742
254.3000	-877099	348.85
254.2000	-900789	348.951
254.1000	-862364	349.063
254.0000	-828108	349.163
253.9000	-812872	349.248
253.8000	-826261	349.324
253.7000	-835114	349.411
253.6000	-853967	349.504
253.5000	-910952	349.617
253.4000	-921176	349.722
253.3000	-874870	349.823
253.2000	-895172	349.919
253.1000	-956068	350.023
253.0000	-1.0202E+006	350.131
252.9000	-1.05494E+006	350.245
252.8000	-1.09438E+006	350.349
252.7000	-1.05646E+006	350.448
252.6000	-1.06185E+006	350.541
252.5000	-1.0751E+006	350.646
252.4000	-1.06319E+006	350.745
252.3000	-972239	350.847
252.2000	-880111	350.949
252.1000	-846718	351.048
252.0000	-867100	351.131
251.9000	-883329	351.208
251.8000	-881641	351.295
251.7000	-773292	351.371
251.6000	-749606	351.452
251.5000	-784625	351.535
251.4000	-887485	351.628
251.3000	-863734	351.719
251.2000	-893245	351.811
251.1000	-999875	351.921
251.0000	-1.04537E+006	352.027
250.9000	-1.1824E+006	352.137
250.8000	-1.28349E+006	352.242
250.7000	-1.26059E+006	352.357
250.6000	-1.2116E+006	352.46
250.5000	-1.23004E+006	352.552
250.4000	-1.21482E+006	352.659
250.3000	-1.17574E+006	352.759
250.2000	-1.15657E+006	352.863
250.1000	-1.16535E+006	352.958
250.0000	-1.24485E+006	353.049
249.9000	-1.37768E+006	353.144
249.8000	-1.40355E+006	353.241
249.7000	-1.46108E+006	353.351
249.6000	-1.46555E+006	353.454
249.5000	-1.45751E+006	353.557
249.4000	-1.35981E+006	353.67
249.3000	-1.3058E+006	353.78
249.2000	-1.17342E+006	353.895
249.1000	-1.03395E+006	354.017
249.0000	-1.01129E+006	354.13
248.9000	-937704	354.234
248.8000	-986156	354.345
248.7000	-1.00783E+006	354.454
248.6000	-1.10497E+006	354.547
248.5000	-1.20689E+006	354.647
248.4000	-1.22288E+006	354.756
248.3000	-1.22581E+006	354.855
248.2000	-1.16009E+006	354.951
248.1000	-1.19737E+006	355.045
248.0000	-1.09988E+006	355.14
247.9000	-1.05607E+006	355.244
247.8000	-1.0508E+006	355.353
247.7000	-978383	355.451
247.6000	-997258	355.547
247.5000	-911059	355.646
247.4000	-958980	355.739
247.3000	-951989	355.831
247.2000	-990395	355.93
247.1000	-1.03504E+006	356.019
247.0000	-1.00342E+006	356.098
246.9000	-987960	356.188
246.8000	-1.07056E+006	356.264
246.7000	-1.06069E+006	356.333
246.6000	-1.09452E+006	356.399
246.5000	-1.10561E+006	356.479
246.4000	-1.06581E+006	356.558
246.3000	-1.06824E+006	356.634
246.2000	-981432	356.718
246.1000	-914314	356.82
246.0000	-865822	356.929
245.9000	-825368	357.047
245.8000	-893749	357.167
245.7000	-816184	357.292
245.6000	-837677	357.408
245.5000	-844069	357.523
245.4000	-831093	357.641
245.3000	-835994	357.75
245.2000	-782875	357.866
245.1000	-690154	357.987
245.0000	-647857	358.114
244.9000	-646171	358.24
244.8000	-641412	358.364
244.7000	-603999	358.495
244.6000	-634842	358.624
244.5000	-643123	358.755
244.4000	-652416	358.874
244.3000	-683708	358.987
244.2000	-725120	359.09
244.1000	-647556	359.203
244.0000	-635638	359.319
243.9000	-651665	359.434
243.8000	-758479	359.542
243.7000	-771833	359.652
243.6000	-859846	359.754
243.5000	-997997	359.851
243.4000	-1.00892E+006	359.963
243.3000	-1.07629E+006	360.072
243.2000	-1.17749E+006	360.175
243.1000	-1.23523E+006	360.277
243.0000	-1.13089E+006	360.39
242.9000	-1.07895E+006	360.505
242.8000	-1.09006E+006	360.625
242.7000	-970293	360.758
242.6000	-948126	360.891
242.5000	-1.02476E+006	361.011
242.4000	-1.02212E+006	361.139
242.3000	-1.02302E+006	361.274
242.2000	-1.14394E+006	361.41
242.1000	-1.19117E+006	361.552
242.0000	-1.15325E+006	361.691
241.9000	-1.174E+006	361.825
241.8000	-1.21697E+006	361.958
241.7000	-1.21993E+006	362.096
241.6000	-1.30414E+006	362.234
241.5000	-1.38592E+006	362.373
241.4000	-1.34112E+006	362.517
241.3000	-1.31159E+006	362.659
241.2000	-1.42333E+006	362.799
241.1000	-1.40984E+006	362.94
241.0000	-1.3147E+006	363.078
240.9000	-1.28007E+006	363.213
240.8000	-1.20297E+006	363.349
240.7000	-1.02396E+006	363.49
240.6000	-946349	363.634
240.5000	-891413	363.782
240.4000	-784564	363.929
240.3000	-754353	364.079
240.2000	-805483	364.232
240.1000	-915783	364.392
240.0000	-930953	364.564
239.9000	-986306	364.734
239.8000	-1.02832E+006	364.9
239.7000	-1.00549E+006	365.06
239.6000	-1.04612E+006	365.217
239.5000	-1.25942E+006	365.377
239.4000	-1.33808E+006	365.548
239.3000	-1.31596E+006	365.72
239.2000	-1.29756E+006	365.888
239.1000	-1.21144E+006	366.056
239.0000	-1.13561E+006	366.227
238.9000	-1.1019E+006	366.401
238.8000	-1.07738E+006	366.58
238.7000	-968267	366.759
238.6000	-899947	366.921
238.5000	-878896	367.084
238.4000	-828110	367.253
238.3000	-954615	367.422
238.2000	-1.0774E+006	367.594
238.1000	-1.29523E+006	367.767
238.0000	-1.49109E+006	367.938
237.9000	-1.62807E+006	368.11
237.8000	-1.63439E+006	368.294
237.7000	-1.71856E+006	368.48
237.6000	-1.86746E+006	368.666
237.5000	-1.94438E+006	368.858
237.4000	-1.97974E+006	369.045
237.3000	-1.98729E+006	369.228
237.2000	-1.80977E+006	369.414
237.1000	-1.68605E+006	369.598
237.0000	-1.52686E+006	369.787
236.9000	-1.50466E+006	369.97
236.8000	-1.39472E+006	370.154
236.7000	-1.29301E+006	370.34
236.6000	-1.22376E+006	370.519
236.5000	-1.16706E+006	370.701
236.4000	-1.22658E+006	370.885
236.3000	-1.35791E+006	371.078
236.2000	-1.50114E+006	371.273
236.1000	-1.50981E+006	371.471
236.0000	-1.50091E+006	371.676
235.9000	-1.51434E+006	371.88
235.8000	-1.48549E+006	372.093
235.7000	-1.46276E+006	372.308
235.6000	-1.37227E+006	372.527
235.5000	-1.28097E+006	372.743
235.4000	-1.18764E+006	372.96
235.3000	-1.21072E+006	373.173
235.2000	-1.24084E+006	373.386
235.1000	-1.27212E+006	373.591
235.0000	-1.23494E+006	373.795
234.9000	-1.162E+006	373.999
234.8000	-1.13816E+006	374.203
234.7000	-1.16951E+006	374.417
234.6000	-1.32763E+006	374.623
234.5000	-1.3901E+006	374.838
234.4000	-1.34021E+006	375.06
234.3000	-1.2232E+006	375.287
234.2000	-1.16335E+006	375.518
234.1000	-1.20264E+006	375.751
234.0000	-1.33565E+006	375.975
233.9000	-1.44539E+006	376.195
233.8000	-1.309E+006	376.42
233.7000	-1.18253E+006	376.644
233.6000	-1.12912E+006	376.871
233.5000	-1.0853E+006	377.1
233.4000	-1.1562E+006	377.32
233.3000	-1.14098E+006	377.542
233.2000	-1.09443E+006	377.773
233.1000	-1.07184E+006	378
233.0000	-1.2287E+006	378.228
232.9000	-1.40393E+006	378.459
232.8000	-1.4917E+006	378.694
232.7000	-1.60763E+006	378.928
232.6000	-1.6929E+006	379.164
232.5000	-1.77453E+006	379.405
232.4000	-1.81523E+006	379.643
232.3000	-1.92603E+006	379.887
232.2000	-1.88583E+006	380.131
232.1000	-1.78208E+006	380.38
232.0000	-1.77348E+006	380.621
231.9000	-1.9454E+006	380.855
231.8000	-1.95741E+006	381.088
231.7000	-1.91481E+006	381.319
231.6000	-1.79447E+006	381.557
231.5000	-1.59143E+006	381.795
231.4000	-1.40979E+006	382.037
231.3000	-1.41221E+006	382.27
231.2000	-1.44843E+006	382.504
231.1000	-1.38047E+006	382.736
231.0000	-1.33215E+006	382.972
230.9000	-1.38906E+006	383.216
230.8000	-1.50655E+006	383.454
230.7000	-1.69348E+006	383.697
230.6000	-1.85064E+006	383.938
230.5000	-1.88049E+006	384.19
230.4000	-1.88923E+006	384.444
230.3000	-1.95826E+006	384.708
230.2000	-2.0007E+006	384.972
230.1000	-1.99305E+006	385.241
230.0000	-1.93915E+006	385.506
229.9000	-1.83651E+006	385.764
229.8000	-1.86543E+006	386.021
229.7000	-1.9598E+006	386.266
229.6000	-2.13324E+006	386.507
229.5000	-2.10377E+006	386.743
229.4000	-2.10514E+006	386.972
229.3000	-2.21838E+006	387.198
229.2000	-2.33975E+006	387.423
229.1000	-2.42943E+006	387.648
229.0000	-2.52544E+006	387.874
228.9000	-2.46821E+006	388.107
228.8000	-2.20368E+006	388.343
228.7000	-2.09853E+006	388.588
228.6000	-2.03896E+006	388.841
228.5000	-2.00414E+006	389.1
228.4000	-2.04346E+006	389.375
228.3000	-2.11188E+006	389.66
228.2000	-2.12412E+006	389.947
228.1000	-2.08836E+006	390.248
228.0000	-2.19942E+006	390.548
227.9000	-2.27042E+006	390.846
227.8000	-2.37901E+006	391.137
227.7000	-2.4632E+006	391.434
227.6000	-2.4849E+006	391.723
227.5000	-2.40093E+006	392.008
227.4000	-2.38473E+006	392.288
227.3000	-2.48721E+006	392.569
227.2000	-2.65631E+006	392.843
227.1000	-2.76338E+006	393.121
227.0000	-2.6853E+006	393.404
226.9000	-2.62338E+006	393.677
226.8000	-2.38407E+006	393.961
226.7000	-2.288E+006	394.24
226.6000	-2.35973E+006	394.514
226.5000	-2.50098E+006	394.779
226.4000	-2.41761E+006	395.046
226.3000	-2.28212E+006	395.315
226.2000	-2.32595E+006	395.586
226.1000	-2.2673E+006	395.865
226.0000	-2.26257E+006	396.132
225.9000	-2.30652E+006	396.393
225.8000	-2.28251E+006	396.66
225.7000	-2.3344E+006	396.927
225.6000	-2.389E+006	397.199
225.5000	-2.44449E+006	397.473
225.4000	-2.53204E+006	397.74
225.3000	-2.59433E+006	398.012
225.2000	-2.63002E+006	398.29
225.1000	-2.53459E+006	398.576
225.0000	-2.59027E+006	398.856
224.9000	-2.62234E+006	399.138
224.8000	-2.56269E+006	399.419
224.7000	-2.61022E+006	399.697
224.6000	-2.54962E+006	399.983
224.5000	-2.56922E+006	400.26
224.4000	-2.67383E+006	400.534
224.3000	-2.8797E+006	400.801
224.2000	-2.99341E+006	401.072
224.1000	-2.97472E+006	401.349
224.0000	-2.85143E+006	401.631
223.9000	-2.6615E+006	401.914
223.8000	-2.5518E+006	402.192
223.7000	-2.49733E+006	402.468
223.6000	-2.49497E+006	402.745
223.5000	-2.48583E+006	403.022
223.4000	-2.3215E+006	403.305
223.3000	-2.23764E+006	403.576
223.2000	-2.3674E+006	403.84
223.1000	-2.51051E+006	404.105
223.0000	-2.5022E+006	404.372
222.9000	-2.31943E+006	404.642
222.8000	-2.19565E+006	404.908
222.7000	-1.92591E+006	405.175
222.6000	-2.00436E+006	405.431
222.5000	-1.96608E+006	405.693
222.4000	-1.66818E+006	405.957
222.3000	-1.54087E+006	406.219
222.2000	-1.66226E+006	406.472
222.1000	-1.84727E+006	406.725
222.0000	-2.00567E+006	406.978
221.9000	-2.30655E+006	407.22
221.8000	-2.38172E+006	407.47
221.7000	-2.49231E+006	407.723
221.6000	-2.84391E+006	407.974
221.5000	-3.01504E+006	408.234
221.4000	-2.99353E+006	408.494
221.3000	-3.04198E+006	408.751
221.2000	-3.02534E+006	409.014
221.1000	-2.58697E+006	409.291
221.0000	-2.33727E+006	409.563
220.9000	-2.21116E+006	409.829
220.8000	-1.87337E+006	410.102
220.7000	-1.57836E+006	410.369
220.6000	-1.51279E+006	410.634
220.5000	-1.41076E+006	410.906
220.4000	-1.395E+006	411.167
220.3000	-1.79074E+006	411.423
220.2000	-2.1322E+006	411.686
220.1000	-2.33711E+006	411.951
220.0000	-2.45552E+006	412.221
219.9000	-2.52129E+006	412.499
219.8000	-2.44659E+006	412.775
219.7000	-2.43909E+006	413.051
219.6000	-2.41865E+006	413.323
219.5000	-2.39855E+006	413.599
219.4000	-2.33604E+006	413.874
219.3000	-2.21233E+006	414.146
219.2000	-2.00935E+006	414.423
219.1000	-1.99068E+006	414.689
219.0000	-2.01608E+006	414.959
218.9000	-1.96348E+006	415.228
218.8000	-1.87415E+006	415.502
218.7000	-1.90614E+006	415.77
218.6000	-1.77472E+006	416.042
218.5000	-1.68859E+006	416.313
218.4000	-1.92409E+006	416.577
218.3000	-2.06556E+006	416.841
218.2000	-2.1755E+006	417.109
218.1000	-2.30135E+006	417.377
218.0000	-2.46624E+006	417.646
217.9000	-2.42325E+006	417.919
217.8000	-2.4078E+006	418.184
217.7000	-2.47726E+006	418.452
217.6000	-2.47771E+006	418.718
217.5000	-2.52881E+006	418.989
217.4000	-2.6197E+006	419.256
217.3000	-2.66931E+006	419.526
217.2000	-2.76378E+006	419.799
217.1000	-2.63288E+006	420.078
217.0000	-2.64751E+006	420.353
216.9000	-2.77035E+006	420.63
216.8000	-2.85311E+006	420.907
216.7000	-2.89734E+006	421.177
216.6000	-2.92948E+006	421.454
216.5000	-3.00453E+006	421.729
216.4000	-3.02508E+006	421.999
216.3000	-2.95151E+006	422.269
216.2000	-2.84709E+006	422.549
216.1000	-2.65679E+006	422.83
216.0000	-2.61063E+006	423.108
215.9000	-2.71178E+006	423.384
215.8000	-2.78691E+006	423.659
215.7000	-2.61837E+006	423.947
215.6000	-2.34149E+006	424.241
215.5000	-2.3629E+006	424.532
215.4000	-2.58119E+006	424.814
215.3000	-2.80191E+006	425.097
215.2000	-2.66455E+006	425.39
215.1000	-2.41436E+006	425.695
215.0000	-2.15314E+006	426.005
214.9000	-2.12345E+006	426.304
214.8000	-2.1818E+006	426.599
214.7000	-2.23234E+006	426.9
214.6000	-2.1129E+006	427.205
214.5000	-2.01167E+006	427.512
214.4000	-1.95126E+006	427.821
214.3000	-1.90557E+006	428.128
214.2000	-2.08119E+006	428.422
214.1000	-2.26222E+006	428.72
214.0000	-2.3026E+006	429.024
213.9000	-2.25582E+006	429.332
213.8000	-2.30918E+006	429.64
213.7000	-2.64302E+006	429.943
213.6000	-3.14975E+006	430.243
213.5000	-3.42771E+006	430.548
213.4000	-3.23164E+006	430.873
213.3000	-3.00854E+006	431.202
213.2000	-2.78606E+006	431.532
213.1000	-2.89794E+006	431.858
213.0000	-2.83819E+006	432.19
212.9000	-2.5082E+006	432.533
212.8000	-1.98829E+006	432.875
212.7000	-1.44923E+006	433.222
212.6000	-1.50339E+006	433.551
212.5000	-1.56092E+006	433.884
212.4000	-1.65E+006	434.221
212.3000	-1.72712E+006	434.555
212.2000	-1.69785E+006	434.895
212.1000	-1.67091E+006	435.237
212.0000	-1.53157E+006	435.59
211.9000	-1.6055E+006	435.941
211.8000	-1.67971E+006	436.29
211.7000	-1.66284E+006	436.647
211.6000	-1.64345E+006	437.004
211.5000	-1.63502E+006	437.365
211.4000	-1.51459E+006	437.731
211.3000	-1.37043E+006	438.099
211.2000	-1.37995E+006	438.455
211.1000	-1.42184E+006	438.813
211.0000	-1.43187E+006	439.181
210.9000	-1.39053E+006	439.547
210.8000	-1.29492E+006	439.918
210.7000	-1.40006E+006	440.294
210.6000	-1.27471E+006	440.677
210.5000	-1.42003E+006	441.061
210.4000	-1.48284E+006	441.454
210.3000	-1.65609E+006	441.852
210.2000	-2.01835E+006	442.239
210.1000	-2.08951E+006	442.643
210.0000	-1.98163E+006	443.051
209.9000	-1.98301E+006	443.458
209.8000	-1.98303E+006	443.861
209.7000	-1.90055E+006	444.267
209.6000	-1.9003E+006	444.672
209.5000	-1.77664E+006	445.086
209.4000	-1.54367E+006	445.503
209.3000	-1.23048E+006	445.924
209.2000	-1.33401E+006	446.336
209.1000	-1.37734E+006	446.75
209.0000	-1.20596E+006	447.172
208.9000	-1.47297E+006	447.592
208.8000	-1.62106E+006	448.011
208.7000	-1.82754E+006	448.432
208.6000	-1.79535E+006	448.869
208.5000	-1.88568E+006	449.304
208.4000	-1.97982E+006	449.738
208.3000	-1.82911E+006	450.184
208.2000	-1.90067E+006	450.63
208.1000	-1.83979E+006	451.08
208.0000	-1.81781E+006	451.53
207.9000	-1.93347E+006	451.98
207.8000	-1.98556E+006	452.432
207.7000	-2.11004E+006	452.882
207.6000	-2.17823E+006	453.339
207.5000	-2.52041E+006	453.792
207.4000	-2.69782E+006	454.245
207.3000	-2.54729E+006	454.709
207.2000	-2.53669E+006	455.173
207.1000	-2.49241E+006	455.636
207.0000	-2.52326E+006	456.096
206.9000	-2.42611E+006	456.562
206.8000	-2.11613E+006	457.034
206.7000	-1.76119E+006	457.506
206.6000	-1.6049E+006	457.98
206.5000	-1.30806E+006	458.46
206.4000	-1.26224E+006	458.935
206.3000	-1.02254E+006	459.423
206.2000	-725213	459.909
206.1000	-776448	460.391
206.0000	-1.09645E+006	460.868
205.9000	-1.4009E+006	461.347
205.8000	-1.35807E+006	461.843
205.7000	-1.70643E+006	462.33
205.6000	-1.76281E+006	462.826
205.5000	-1.72096E+006	463.329
205.4000	-1.63023E+006	463.837
205.3000	-1.50339E+006	464.353
205.2000	-1.0304E+006	464.882
205.1000	-606289	465.415
205.0000	-307461	465.943
204.9000	-159004	466.471
204.8000	-395.707	467.003
204.7000	-17057.6	467.535
204.6000	-250808	468.061
204.5000	-702500	468.586
204.4000	-902679	469.118
204.3000	-1.49979E+006	469.644
204.2000	-1.93414E+006	470.183
204.1000	-2.17928E+006	470.729
204.0000	-2.19038E+006	471.282
203.9000	-2.31838E+006	471.834
203.8000	-2.11742E+006	472.394
203.7000	-1.73979E+006	472.962
203.6000	-1.70182E+006	473.529
203.5000	-1.68062E+006	474.097
203.4000	-1.50348E+006	474.674
203.3000	-1.15817E+006	475.264
203.2000	-791030	475.859
203.1000	-580924	476.457
203.0000	-545752	477.058
202.9000	-518711	477.667
202.8000	-308180	478.277
202.7000	96481.5	478.901
202.6000	439825	479.523
202.5000	537599	480.142
202.4000	609113	480.76
202.3000	698090	481.386
202.2000	948365	482.019
202.1000	712161	482.645
202.0000	460163	483.281
201.9000	92325.1	483.92
201.8000	-100975	484.576
201.7000	-7589.33	485.246
201.6000	-271319	485.92
201.5000	-579107	486.599
201.4000	-663784	487.297
201.3000	-125281	488.02
201.2000	365030	488.747
201.1000	456965	489.476
201.0000	396289	490.212
200.9000	208164	490.951
200.8000	481049	491.723
200.7000	740584	492.503
200.6000	723190	493.288
200.5000	532269	494.085
200.4000	183153	494.899
200.3000	503496	495.746
200.2000	799962	496.603
200.1000	1.13473E+006	497.467
200.0000	1.2198E+006	498.327
199.9000	1.70178E+006	499.202
199.8000	2.19756E+006	500.077
199.7000	2.49881E+006	500.945
199.6000	2.77775E+006	501.813
199.5000	2.91492E+006	502.677
199.4000	3.03474E+006	503.54
199.3000	3.53526E+006	504.416
199.2000	3.89839E+006	505.296
199.1000	3.61876E+006	506.167
199.0000	3.23568E+006	507.047
198.9000	3.11278E+006	507.949
198.8000	2.85978E+006	508.859
198.7000	3.07466E+006	509.8
198.6000	3.07003E+006	510.754
198.5000	2.85305E+006	511.731
198.4000	2.39814E+006	512.713
198.3000	1.9181E+006	513.708
198.2000	1.64823E+006	514.728
198.1000	1.0206E+006	515.757
198.0000	494056	516.813
197.9000	112849	517.884
197.8000	-131337	518.967
197.7000	-307484	520.066
197.6000	101867	521.19
197.5000	695197	522.336
197.4000	813423	523.466
197.3000	1.27495E+006	524.596
197.2000	2.13738E+006	525.7
197.1000	2.69078E+006	526.765
197.0000	2.7874E+006	527.798
196.9000	2.93444E+006	528.812
196.8000	3.09441E+006	529.815
196.7000	2.65467E+006	530.805
196.6000	2.56254E+006	531.816
196.5000	2.8021E+006	532.862
196.4000	2.69279E+006	533.957
196.3000	2.99293E+006	535.132
196.2000	3.42302E+006	536.373
196.1000	3.50203E+006	537.67
196.0000	3.26446E+006	539.034
195.9000	3.37969E+006	540.498
195.8000	3.92934E+006	542.071
195.7000	3.76932E+006	543.749
195.6000	3.76244E+006	545.547
195.5000	3.45365E+006	547.47
195.4000	2.78218E+006	549.496
195.3000	2.76658E+006	551.637
195.2000	2.80124E+006	553.845
195.1000	2.71692E+006	556.093
195.0000	2.40481E+006	558.304
194.9000	2.41834E+006	560.429
194.8000	2.39764E+006	562.409
194.7000	2.0575E+006	564.226
194.6000	1.96172E+006	565.918
194.5000	1.78655E+006	567.498
194.4000	1.67611E+006	569.015
194.3000	1.62521E+006	570.486
194.2000	1.4222E+006	571.988
194.1000	806434	573.601
194.0000	960843	575.415
193.9000	1.00295E+006	577.462
193.8000	1.42729E+006	579.774
193.7000	1.48637E+006	582.382
193.6000	867893	585.293
193.5000	316501	588.565
193.4000	-202987	592.231
193.3000	-439228	596.325
193.2000	-1.25284E+006	600.792
193.1000	-1.7206E+006	605.624
193.0000	-2.4893E+006	610.736
192.9000	-2.2881E+006	616.051
192.8000	-726666	621.461
192.7000	3067.03	626.758
192.6000	-250308	631.703
192.5000	-562714	636.159
192.4000	-435495	640.129
192.3000	-390935	643.633
192.2000	972091	646.742
192.1000	2.72201E+006	649.51
192.0000	3.69489E+006	652.036
191.9000	3.969E+006	654.506
191.8000	4.37764E+006	657.224
191.7000	5.81035E+006	660.474
191.6000	7.94108E+006	664.355
191.5000	8.13629E+006	668.848
191.4000	8.29068E+006	674
191.3000	7.95645E+006	679.932
191.2000	7.86168E+006	686.677
191.1000	7.17684E+006	694.245
191.0000	6.91035E+006	702.574
190.9000	5.19137E+006	711.51
190.8000	2.81076E+006	720.982
190.7000	4.44366E+006	731.016
190.6000	5.03259E+006	741.343
190.5000	8.19893E+006	751.792
190.4000	8.81641E+006	761.914
190.3000	4.84371E+006	771.438
190.2000	-316392	780.257
190.1000	-826157	788.502
190.0000	1.25E+006	796.163

##### Extended Information
[Comments]
Sample name	ACE2_Cal_0.8uM
Comment
User
Division
Company	CSIR-IMTECH

[Detailed Information]
Creation date	4/9/2024 4:53 PM

Data array type	Linear data array * 2
Horizontal axis	Wavelength [nm]
Vertical axis(1)	Mol. Ellip.
Vertical axis(2)	HT [V]
Start	350 nm
End	190 nm
Data interval	0.1 nm
Data points	1601    

[Measurement Information]
Instrument Name	JASCO CD
Model Name	J-815
Serial No.	B063061168

Accessory	PTC-423S
Accessory S/N	C013945-01
  Temperature	37.43 C
  Control Sonsor	Cell
  Monitor Sensor	Cell
  Start Mode	Start immediately
  Cell Length	10 mm

Measurement date	4/9/2024 4:52 PM

Photometric Mode	CD, HT
Measure Range	350 - 190 nm
Data pitch	0.1 nm
Sensitivity	Standard
D.I.T.	1 sec
Bandwidth	1.00 nm
Start Mode	Immediately
Scanning Speed	50 nm/min
Baseline Correction	None
Shutter Control	Auto
CD Detector	PMT
PMT Voltage	Auto
Accumulations	3
Concentration	0.8 umol/L

