TITLE	ACE2_D2_0.2uM
DATA TYPE	
ORIGIN	JASCO
OWNER	
DATE	24/02/26
TIME	15:36:18
SPECTROMETER/DATA SYSTEM	
LOCALE	1033
RESOLUTION	
DELTAX	-0.1
XUNITS	NANOMETERS
YUNITS	Mol. Ellip.
Y2UNITS	HT [V]
FIRSTX	  350.0000
LASTX	  190.0000
NPOINTS	    1601
FIRSTY	1242716.50000
MAXY	59558412.00000
MINY	-17546956.00000
XYDATA
350.0000	1.24272E+006	469.912
349.9000	2.31824E+006	469.298
349.8000	3.09549E+006	468.424
349.7000	3.9333E+006	467.548
349.6000	4.06849E+006	466.919
349.5000	2.20259E+006	466.362
349.4000	-163589	465.473
349.3000	-2.21582E+006	464.852
349.2000	-2.95039E+006	464.332
349.1000	-2.9214E+006	463.536
349.0000	-2.13417E+006	462.935
348.9000	-2.5898E+006	462.391
348.8000	-3.54612E+006	461.529
348.7000	-3.5464E+006	460.651
348.6000	-2.68782E+006	460.026
348.5000	-1.89792E+006	459.493
348.4000	-1.09292E+006	458.636
348.3000	-1.73602E+006	457.976
348.2000	-2.31787E+006	457.388
348.1000	-2.3325E+006	456.53
348.0000	-2.78727E+006	455.898
347.9000	-3.62529E+006	455.351
347.8000	-5.50644E+006	454.531
347.7000	-5.7129E+006	453.711
347.6000	-4.8935E+006	453.136
347.5000	-4.01956E+006	452.655
347.4000	-4.50662E+006	451.874
347.3000	-4.11906E+006	451.281
347.2000	-3.99803E+006	450.764
347.1000	-2.56458E+006	450.017
347.0000	-448730	449.473
346.9000	82982.4	449.002
346.8000	13051.4	448.239
346.7000	-1.38214E+006	447.456
346.6000	-2.40965E+006	446.88
346.5000	-3.11344E+006	446.157
346.4000	-3.76956E+006	445.425
346.3000	-5.07531E+006	444.856
346.2000	-5.97037E+006	444.092
346.1000	-5.24921E+006	443.321
346.0000	-4.26596E+006	442.764
345.9000	-3.84898E+006	442.292
345.8000	-3.0272E+006	441.543
345.7000	-3.1324E+006	440.985
345.6000	-4.29137E+006	440.49
345.5000	-4.17311E+006	439.793
345.4000	-3.30513E+006	439.289
345.3000	-3.17888E+006	438.866
345.2000	-3.92656E+006	438.172
345.1000	-3.24579E+006	437.468
345.0000	-2.10751E+006	436.957
344.9000	-1.63087E+006	436.281
344.8000	287979	435.596
344.7000	1.90636E+006	435.052
344.6000	2.99641E+006	434.375
344.5000	2.87044E+006	433.682
344.4000	3.25254E+006	433.173
344.3000	3.04064E+006	432.512
344.2000	3.19345E+006	431.844
344.1000	4.02608E+006	431.351
344.0000	3.48457E+006	430.71
343.9000	2.64199E+006	430.067
343.8000	1.78768E+006	429.582
343.7000	1.62767E+006	429.155
343.6000	1.57365E+006	428.521
343.5000	1.29814E+006	428.064
343.4000	116984	427.67
343.3000	-1.23189E+006	427.038
343.2000	-1.64367E+006	426.581
343.1000	-1.41124E+006	426.188
343.0000	-1.52193E+006	425.606
342.9000	-1.76583E+006	425.011
342.8000	-1.71864E+006	424.563
342.7000	-1.846E+006	423.95
342.6000	-1.35299E+006	423.328
342.5000	-965830	422.876
342.4000	-424266	422.308
342.3000	549500	421.736
342.2000	1.12631E+006	421.297
342.1000	694946	420.73
342.0000	-321803	420.156
341.9000	-1.52779E+006	419.753
341.8000	-1.26827E+006	419.226
341.7000	-1.59182E+006	418.685
341.6000	-1.41087E+006	418.287
341.5000	-1.51712E+006	417.753
341.4000	-2.04205E+006	417.2
341.3000	-1.26592E+006	416.782
341.2000	-1.31845E+006	416.233
341.1000	-717809	415.674
341.0000	-1.79206E+006	415.257
340.9000	-2.79418E+006	414.717
340.8000	-2.92143E+006	414.174
340.7000	-3.13991E+006	413.763
340.6000	-2.54382E+006	413.258
340.5000	-2.62535E+006	412.747
340.4000	-1.83577E+006	412.373
340.3000	-581329	411.871
340.2000	1.11105E+006	411.358
340.1000	3.09116E+006	410.98
340.0000	3.09364E+006	410.489
339.9000	3.44449E+006	409.992
339.8000	3.02425E+006	409.614
339.7000	2.41775E+006	409.122
339.6000	2.37212E+006	408.626
339.5000	1.71417E+006	408.259
339.4000	1.26615E+006	407.788
339.3000	258494	407.301
339.2000	334783	406.777
339.1000	1.31162E+006	406.313
339.0000	1.16453E+006	405.833
338.9000	1.59321E+006	405.315
338.8000	1.45306E+006	404.846
338.7000	654475	404.37
338.6000	36666.9	403.853
338.5000	-700968	403.391
338.4000	-624110	403.054
338.3000	-1.72002E+006	402.635
338.2000	-2.52803E+006	402.213
338.1000	-1.85377E+006	401.915
338.0000	-705912	401.514
337.9000	-259598	401.102
337.8000	-242203	400.807
337.7000	195185	400.415
337.6000	371287	400.011
337.5000	124959	399.7
337.4000	646871	399.288
337.3000	-367274	398.855
337.2000	-1.21475E+006	398.382
337.1000	-1.59025E+006	397.962
337.0000	-1.92298E+006	397.536
336.9000	-2.75188E+006	397.086
336.8000	-3.02436E+006	396.693
336.7000	-3.46311E+006	396.297
336.6000	-4.39092E+006	395.86
336.5000	-5.05389E+006	395.472
336.4000	-5.83132E+006	395.195
336.3000	-6.95264E+006	394.829
336.2000	-8.10331E+006	394.459
336.1000	-7.65747E+006	394.193
336.0000	-7.91995E+006	393.837
335.9000	-7.2691E+006	393.461
335.8000	-6.80686E+006	393.043
335.7000	-6.22528E+006	392.668
335.6000	-4.91021E+006	392.291
335.5000	-4.07822E+006	391.885
335.4000	-2.89669E+006	391.523
335.3000	-883916	391.158
335.2000	299006	390.77
335.1000	475220	390.427
335.0000	438451	390.195
334.9000	1.40248E+006	389.874
334.8000	1.21722E+006	389.536
334.7000	589996	389.165
334.6000	-186915	388.837
334.5000	-1.38617E+006	388.501
334.4000	-2.44043E+006	388.12
334.3000	-2.34437E+006	387.776
334.2000	-2.30924E+006	387.424
334.1000	-3.02824E+006	387.044
334.0000	-3.15944E+006	386.713
333.9000	-2.70764E+006	386.475
333.8000	-1.20467E+006	386.161
333.7000	-349426	385.835
333.6000	-1.26146E+006	385.465
333.5000	-1.9878E+006	385.141
333.4000	-1.95996E+006	384.816
333.3000	-1.39851E+006	384.47
333.2000	-1.27196E+006	384.166
333.1000	-1.31856E+006	383.856
333.0000	-1.89514E+006	383.527
332.9000	-3.07634E+006	383.232
332.8000	-2.65245E+006	382.907
332.7000	-2.03238E+006	382.626
332.6000	-1.79367E+006	382.337
332.5000	-1.77776E+006	382.017
332.4000	-1.62405E+006	381.736
332.3000	-1.18764E+006	381.446
332.2000	-72708.1	381.12
332.1000	853658	380.824
332.0000	1.80085E+006	380.495
331.9000	2.15281E+006	380.21
331.8000	2.10767E+006	379.92
331.7000	1.90842E+006	379.608
331.6000	1.04766E+006	379.324
331.5000	373795	378.92
331.4000	-568588	378.597
331.3000	-1.17971E+006	378.316
331.2000	-2.67333E+006	378.018
331.1000	-3.15715E+006	377.762
331.0000	-3.05759E+006	377.497
330.9000	-2.76097E+006	377.207
330.8000	-2.50023E+006	376.942
330.7000	-2.00924E+006	376.657
330.6000	-1.77392E+006	376.407
330.5000	-1.43242E+006	376.151
330.4000	398956	375.865
330.3000	1.41418E+006	375.607
330.2000	1.14889E+006	375.248
330.1000	516947	374.96
330.0000	241928	374.708
329.9000	785177	374.416
329.8000	776026	374.156
329.7000	997487	373.817
329.6000	369832	373.551
329.5000	-789627	373.317
329.4000	-1.11134E+006	373.035
329.3000	-1.35058E+006	372.782
329.2000	-943990	372.452
329.1000	-1.71035E+006	372.205
329.0000	-2.43105E+006	371.999
328.9000	-2.96961E+006	371.735
328.8000	-2.74182E+006	371.492
328.7000	-3.12103E+006	371.195
328.6000	-2.97271E+006	370.988
328.5000	-2.62626E+006	370.824
328.4000	-2.57976E+006	370.559
328.3000	-1.40562E+006	370.316
328.2000	-593287	370.058
328.1000	-21326.7	369.887
328.0000	-309550	369.75
327.9000	-204463	369.462
327.8000	481155	369.179
327.7000	963786	368.907
327.6000	332306	368.746
327.5000	-643631	368.641
327.4000	-1.41587E+006	368.349
327.3000	-1.44744E+006	368.039
327.2000	-1.84293E+006	367.75
327.1000	-1.61896E+006	367.607
327.0000	-1.59896E+006	367.531
326.9000	-1.41012E+006	367.261
326.8000	-1.0347E+006	366.962
326.7000	-690353	366.674
326.6000	-134903	366.535
326.5000	-695140	366.464
326.4000	-672012	366.181
326.3000	-723089	365.866
326.2000	-1.88499E+006	365.579
326.1000	-2.17457E+006	365.428
326.0000	-2.48356E+006	365.126
325.9000	-1.60195E+006	364.817
325.8000	-1.77502E+006	364.486
325.7000	-1.51014E+006	364.2
325.6000	-1.40258E+006	364.063
325.5000	-1.40401E+006	363.79
325.4000	-672679	363.493
325.3000	-556747	363.172
325.2000	-1.12277E+006	363.053
325.1000	-1.91198E+006	363.017
325.0000	-2.83413E+006	362.789
324.9000	-3.30821E+006	362.524
324.8000	-3.41484E+006	362.256
324.7000	-3.21947E+006	362.148
324.6000	-2.65242E+006	362.115
324.5000	-2.47341E+006	361.87
324.4000	-2.27147E+006	361.583
324.3000	-1.805E+006	361.302
324.2000	-1.55589E+006	361.157
324.1000	-997457	360.883
324.0000	-404154	360.589
323.9000	-327581	360.272
323.8000	-997075	359.978
323.7000	-1.17234E+006	359.834
323.6000	-818527	359.591
323.5000	-701797	359.323
323.4000	-870341	359.07
323.3000	-1.05831E+006	358.967
323.2000	-1.48081E+006	358.93
323.1000	-1.53968E+006	358.728
323.0000	-1.41553E+006	358.498
322.9000	-1.6741E+006	358.234
322.8000	-1.44427E+006	358.096
322.7000	-1.24049E+006	357.846
322.6000	-546229	357.561
322.5000	617961	357.262
322.4000	789780	356.955
322.3000	777730	356.759
322.2000	686890	356.424
322.1000	780324	356.091
322.0000	77280.7	355.781
321.9000	-630010	355.596
321.8000	-1.0225E+006	355.357
321.7000	-1.52597E+006	355.111
321.6000	-1.90627E+006	354.863
321.5000	-1.96729E+006	354.618
321.4000	-1.88277E+006	354.527
321.3000	-1.54706E+006	354.401
321.2000	-1.23769E+006	354.262
321.1000	-1.28088E+006	354.096
321.0000	-1.55125E+006	354.029
320.9000	-1.69004E+006	353.885
320.8000	-1.61801E+006	353.738
320.7000	-1.27612E+006	353.588
320.6000	-1.2811E+006	353.43
320.5000	-1.41282E+006	353.351
320.4000	-1.41047E+006	353.16
320.3000	-1.07076E+006	352.975
320.2000	-881607	352.778
320.1000	-668437	352.67
320.0000	-585251	352.511
319.9000	-575282	352.356
319.8000	-711502	352.162
319.7000	-839361	351.962
319.6000	-1.17775E+006	351.769
319.5000	-1.75185E+006	351.628
319.4000	-2.16621E+006	351.488
319.3000	-2.66952E+006	351.301
319.2000	-2.67601E+006	351.182
319.1000	-2.79729E+006	350.994
319.0000	-3.07888E+006	350.821
318.9000	-3.24217E+006	350.616
318.8000	-3.3488E+006	350.477
318.7000	-2.95926E+006	350.251
318.6000	-2.548E+006	350.015
318.5000	-1.43478E+006	349.802
318.4000	-1.20501E+006	349.595
318.3000	-1.30702E+006	349.391
318.2000	-994787	349.229
318.1000	-743907	349.094
318.0000	7476.81	348.924
317.9000	-260473	348.836
317.8000	77626.5	348.735
317.7000	-258809	348.638
317.6000	-452148	348.463
317.5000	-721436	348.332
317.4000	-1.30036E+006	348.149
317.3000	-1.2322E+006	347.962
317.2000	-1.40052E+006	347.756
317.1000	-1.48957E+006	347.561
317.0000	-1.69897E+006	347.317
316.9000	-1.92437E+006	347.089
316.8000	-2.62568E+006	346.881
316.7000	-2.65816E+006	346.696
316.6000	-2.15574E+006	346.534
316.5000	-2.31244E+006	346.39
316.4000	-2.56108E+006	346.211
316.3000	-3.1939E+006	346.041
316.2000	-3.02791E+006	345.919
316.1000	-2.68333E+006	345.832
316.0000	-2.36655E+006	345.767
315.9000	-2.19949E+006	345.618
315.8000	-2.73652E+006	345.488
315.7000	-2.96519E+006	345.331
315.6000	-2.51619E+006	345.229
315.5000	-1.76219E+006	345.069
315.4000	-1.40266E+006	344.92
315.3000	-1.29459E+006	344.705
315.2000	-1.45771E+006	344.482
315.1000	-1.56552E+006	344.283
315.0000	-1.02336E+006	344.111
314.9000	-599035	343.949
314.8000	-881043	343.796
314.7000	-1.43304E+006	343.633
314.6000	-2.10088E+006	343.493
314.5000	-2.55279E+006	343.375
314.4000	-2.32166E+006	343.281
314.3000	-2.08782E+006	343.141
314.2000	-2.22704E+006	343.012
314.1000	-2.375E+006	342.857
314.0000	-2.29243E+006	342.707
313.9000	-2.0263E+006	342.531
313.8000	-1.75145E+006	342.377
313.7000	-1.2859E+006	342.165
313.6000	-1.06984E+006	341.956
313.5000	-1.55431E+006	341.76
313.4000	-1.72725E+006	341.591
313.3000	-1.69092E+006	341.446
313.2000	-2.05614E+006	341.305
313.1000	-2.47628E+006	341.14
313.0000	-2.70891E+006	340.994
312.9000	-2.80554E+006	340.883
312.8000	-2.97174E+006	340.797
312.7000	-2.34883E+006	340.662
312.6000	-1.66865E+006	340.538
312.5000	-1.73304E+006	340.385
312.4000	-1.6305E+006	340.227
312.3000	-1.07004E+006	340.044
312.2000	-689036	339.882
312.1000	-398570	339.674
312.0000	-170893	339.467
311.9000	-324631	339.266
311.8000	-697896	339.08
311.7000	-1.22102E+006	338.914
311.6000	-1.02383E+006	338.696
311.5000	-998820	338.536
311.4000	-798035	338.393
311.3000	-374975	338.296
311.2000	239761	338.155
311.1000	432480	338.051
311.0000	577184	337.95
310.9000	1.16588E+006	337.859
310.8000	1.39798E+006	337.753
310.7000	1.37659E+006	337.672
310.6000	1.26802E+006	337.545
310.5000	939652	337.418
310.4000	54845.2	337.305
310.3000	-504969	337.214
310.2000	-824717	337.134
310.1000	-845047	337.058
310.0000	-1.27447E+006	336.964
309.9000	-1.3641E+006	336.889
309.8000	-1.80286E+006	336.834
309.7000	-1.88412E+006	336.731
309.6000	-1.68194E+006	336.653
309.5000	-1.64342E+006	336.559
309.4000	-1.58636E+006	336.47
309.3000	-1.39091E+006	336.31
309.2000	-1.03528E+006	336.192
309.1000	-926244	336.053
309.0000	-266663	335.924
308.9000	169968	335.799
308.8000	210775	335.694
308.7000	678507	335.606
308.6000	1.11104E+006	335.524
308.5000	927912	335.42
308.4000	758413	335.334
308.3000	557582	335.274
308.2000	573313	335.153
308.1000	501806	335.065
308.0000	638713	334.979
307.9000	817876	334.899
307.8000	774323	334.739
307.7000	392639	334.625
307.6000	-39499.9	334.507
307.5000	63385	334.335
307.4000	-95616.7	334.215
307.3000	-138840	334.113
307.2000	31494.1	334.023
307.1000	-430456	333.874
307.0000	-1.12067E+006	333.774
306.9000	-916158	333.698
306.8000	-552862	333.647
306.7000	-662404	333.574
306.6000	-853739	333.496
306.5000	-886200	333.426
306.4000	-1.1964E+006	333.294
306.3000	-1.2654E+006	333.203
306.2000	-704534	333.097
306.1000	-252599	332.998
306.0000	-339829	332.848
305.9000	-135188	332.746
305.8000	269521	332.672
305.7000	808482	332.543
305.6000	1.0747E+006	332.456
305.5000	905619	332.383
305.4000	617396	332.337
305.3000	116516	332.234
305.2000	84014.9	332.164
305.1000	-221771	332.091
305.0000	-590357	331.967
304.9000	-1.06472E+006	331.887
304.8000	-1.59755E+006	331.798
304.7000	-1.61737E+006	331.713
304.6000	-1.49688E+006	331.584
304.5000	-1.33673E+006	331.493
304.4000	-1.43049E+006	331.421
304.3000	-1.47584E+006	331.303
304.2000	-1.04532E+006	331.234
304.1000	-712051	331.184
304.0000	-452220	331.155
303.9000	-358805	331.066
303.8000	-456192	330.994
303.7000	-493215	330.95
303.6000	-513840	330.844
303.5000	-338135	330.779
303.4000	-17156	330.711
303.3000	-160141	330.599
303.2000	-757650	330.479
303.1000	-1.00857E+006	330.396
303.0000	-1.40824E+006	330.349
302.9000	-1.63438E+006	330.242
302.8000	-1.98643E+006	330.169
302.7000	-2.37262E+006	330.119
302.6000	-2.56713E+006	330.024
302.5000	-3.15467E+006	329.963
302.4000	-3.14314E+006	329.915
302.3000	-2.86901E+006	329.817
302.2000	-2.53275E+006	329.718
302.1000	-2.4797E+006	329.639
302.0000	-2.56309E+006	329.587
301.9000	-2.04123E+006	329.497
301.8000	-2.01766E+006	329.43
301.7000	-1.74569E+006	329.387
301.6000	-1.49923E+006	329.296
301.5000	-1.38564E+006	329.245
301.4000	-1.70734E+006	329.205
301.3000	-1.74009E+006	329.128
301.2000	-1.64279E+006	329.052
301.1000	-1.56763E+006	328.997
301.0000	-1.4507E+006	328.969
300.9000	-1.0658E+006	328.897
300.8000	-659281	328.827
300.7000	-539581	328.774
300.6000	-383128	328.694
300.5000	-119797	328.635
300.4000	-57983.4	328.596
300.3000	-97712.2	328.516
300.2000	-348267	328.432
300.1000	-1.04311E+006	328.372
300.0000	-1.77664E+006	328.303
299.9000	-2.22106E+006	328.246
299.8000	-2.45428E+006	328.199
299.7000	-2.54723E+006	328.131
299.6000	-2.55751E+006	328.066
299.5000	-2.0818E+006	328.01
299.4000	-1.98988E+006	327.967
299.3000	-1.98778E+006	327.895
299.2000	-1.94202E+006	327.847
299.1000	-1.53334E+006	327.813
299.0000	-1.30678E+006	327.742
298.9000	-1.41162E+006	327.697
298.8000	-1.22225E+006	327.667
298.7000	-1.37442E+006	327.606
298.6000	-1.62889E+006	327.552
298.5000	-1.54462E+006	327.511
298.4000	-1.67996E+006	327.448
298.3000	-1.5422E+006	327.391
298.2000	-1.65815E+006	327.339
298.1000	-1.23927E+006	327.284
298.0000	-1.0292E+006	327.229
297.9000	-758286	327.191
297.8000	-1.03014E+006	327.128
297.7000	-1.40811E+006	327.074
297.6000	-1.3195E+006	327.04
297.5000	-1.51169E+006	326.977
297.4000	-2.13048E+006	326.927
297.3000	-2.73163E+006	326.889
297.2000	-3.14913E+006	326.824
297.1000	-3.68974E+006	326.771
297.0000	-3.78468E+006	326.728
296.9000	-3.24883E+006	326.671
296.8000	-2.72663E+006	326.623
296.7000	-2.25143E+006	326.589
296.6000	-1.76939E+006	326.571
296.5000	-1.46557E+006	326.528
296.4000	-1.15977E+006	326.501
296.3000	-1.12952E+006	326.484
296.2000	-1.13857E+006	326.445
296.1000	-1.25867E+006	326.417
296.0000	-1.28454E+006	326.398
295.9000	-1.49655E+006	326.358
295.8000	-1.80036E+006	326.3
295.7000	-1.67592E+006	326.269
295.6000	-1.9068E+006	326.233
295.5000	-2.34923E+006	326.174
295.4000	-2.67368E+006	326.108
295.3000	-2.69907E+006	326.07
295.2000	-2.9063E+006	326.018
295.1000	-3.3877E+006	325.951
295.0000	-3.69072E+006	325.914
294.9000	-3.68272E+006	325.863
294.8000	-3.99159E+006	325.799
294.7000	-4.23084E+006	325.759
294.6000	-3.78297E+006	325.732
294.5000	-3.39969E+006	325.691
294.4000	-3.49014E+006	325.658
294.3000	-3.44706E+006	325.637
294.2000	-3.06107E+006	325.597
294.1000	-2.96174E+006	325.566
294.0000	-2.72011E+006	325.548
293.9000	-2.26766E+006	325.508
293.8000	-2.32966E+006	325.479
293.7000	-2.54495E+006	325.459
293.6000	-2.31091E+006	325.414
293.5000	-2.17724E+006	325.361
293.4000	-2.11388E+006	325.339
293.3000	-1.95786E+006	325.304
293.2000	-1.71428E+006	325.26
293.1000	-1.6427E+006	325.245
293.0000	-1.20167E+006	325.209
292.9000	-1.5511E+006	325.162
292.8000	-1.96563E+006	325.145
292.7000	-2.08919E+006	325.124
292.6000	-2.30602E+006	325.09
292.5000	-2.30967E+006	325.039
292.4000	-2.79877E+006	325.008
292.3000	-2.98621E+006	324.963
292.2000	-3.39183E+006	324.915
292.1000	-3.62672E+006	324.89
292.0000	-3.89531E+006	324.851
291.9000	-3.86455E+006	324.803
291.8000	-3.72799E+006	324.761
291.7000	-3.60165E+006	324.745
291.6000	-3.1062E+006	324.712
291.5000	-2.91638E+006	324.675
291.4000	-2.65295E+006	324.659
291.3000	-1.87293E+006	324.618
291.2000	-1.38076E+006	324.565
291.1000	-1.04085E+006	324.504
291.0000	-860392	324.461
290.9000	-820073	324.394
290.8000	-712326	324.308
290.7000	-1.0053E+006	324.215
290.6000	-956085	324.111
290.5000	-1.10705E+006	323.986
290.4000	-845423	323.863
290.3000	-653071	323.757
290.2000	-557724	323.63
290.1000	-652501	323.495
290.0000	-642085	323.374
289.9000	-546290	323.296
289.8000	-491425	323.23
289.7000	-505132	323.186
289.6000	-653117	323.181
289.5000	-740056	323.21
289.4000	-820302	323.256
289.3000	-856044	323.334
289.2000	-1.23121E+006	323.427
289.1000	-1.45934E+006	323.535
289.0000	-879476	323.641
288.9000	-610128	323.74
288.8000	-753479	323.827
288.7000	-427231	323.904
288.6000	-439738	323.956
288.5000	-543386	323.997
288.4000	-114970	324.017
288.3000	144613	324.033
288.2000	-693461	324.031
288.1000	-1.50572E+006	324.015
288.0000	-1.56344E+006	323.998
287.9000	-1.59833E+006	323.959
287.8000	-1.51243E+006	323.937
287.7000	-810125	323.92
287.6000	-568405	323.897
287.5000	-813370	323.868
287.4000	-730214	323.849
287.3000	7502.24	323.829
287.2000	337840	323.817
287.1000	560333	323.799
287.0000	295634	323.767
286.9000	-66879.3	323.746
286.8000	-469233	323.73
286.7000	-786031	323.718
286.6000	-648031	323.688
286.5000	-495102	323.676
286.4000	-621872	323.67
286.3000	-913539	323.661
286.2000	-1.15519E+006	323.66
286.1000	-1.12994E+006	323.645
286.0000	-1.10838E+006	323.643
285.9000	-1.15357E+006	323.64
285.8000	-972753	323.637
285.7000	-1.23965E+006	323.626
285.6000	-1.46672E+006	323.601
285.5000	-1.36659E+006	323.602
285.4000	-876953	323.612
285.3000	-896907	323.613
285.2000	-1.22466E+006	323.602
285.1000	-1.12764E+006	323.583
285.0000	-1.05831E+006	323.586
284.9000	-1.26033E+006	323.586
284.8000	-1.23764E+006	323.587
284.7000	-1.1979E+006	323.581
284.6000	-1.65982E+006	323.558
284.5000	-2.02844E+006	323.559
284.4000	-1.83868E+006	323.568
284.3000	-1.97195E+006	323.575
284.2000	-1.9283E+006	323.573
284.1000	-1.58475E+006	323.56
284.0000	-1.16502E+006	323.55
283.9000	-1.02854E+006	323.556
283.8000	-834005	323.564
283.7000	-470688	323.568
283.6000	-177628	323.557
283.5000	294286	323.557
283.4000	693064	323.552
283.3000	586680	323.569
283.2000	290400	323.595
283.1000	526561	323.603
283.0000	570643	323.6
282.9000	778351	323.594
282.8000	760600	323.597
282.7000	517863	323.614
282.6000	25548.3	323.629
282.5000	-146047	323.636
282.4000	-1429.24	323.627
282.3000	-144618	323.625
282.2000	-253342	323.624
282.1000	-394470	323.645
282.0000	-481954	323.662
281.9000	-911067	323.663
281.8000	-1.01156E+006	323.664
281.7000	-812134	323.663
281.6000	-719152	323.666
281.5000	-789215	323.666
281.4000	-920990	323.686
281.3000	-1.10925E+006	323.696
281.2000	-855026	323.696
281.1000	-374832	323.692
281.0000	-125676	323.687
280.9000	225718	323.685
280.8000	424571	323.682
280.7000	466212	323.681
280.6000	584793	323.686
280.5000	687785	323.678
280.4000	579407	323.672
280.3000	22186.3	323.662
280.2000	2970.38	323.653
280.1000	-290690	323.644
280.0000	-535726	323.634
279.9000	-274689	323.623
279.8000	-207072	323.599
279.7000	53248.1	323.591
279.6000	346532	323.584
279.5000	342575	323.582
279.4000	170547	323.581
279.3000	-2700.81	323.576
279.2000	-62545.8	323.575
279.1000	-4877.73	323.581
279.0000	-439346	323.585
278.9000	-307454	323.584
278.8000	-423075	323.594
278.7000	-355820	323.604
278.6000	8361.82	323.617
278.5000	16744	323.629
278.4000	-60231.5	323.641
278.3000	-681488	323.649
278.2000	-1.0293E+006	323.662
278.1000	-866740	323.673
278.0000	-1.07764E+006	323.668
277.9000	-1.58484E+006	323.66
277.8000	-2.04014E+006	323.652
277.7000	-1.9866E+006	323.648
277.6000	-1.46089E+006	323.663
277.5000	-945521	323.68
277.4000	-743754	323.691
277.3000	-1.03452E+006	323.703
277.2000	-1.55395E+006	323.714
277.1000	-1.60832E+006	323.727
277.0000	-2.02993E+006	323.737
276.9000	-2.12711E+006	323.748
276.8000	-2.47775E+006	323.745
276.7000	-2.77648E+006	323.74
276.6000	-2.86225E+006	323.736
276.5000	-2.62312E+006	323.733
276.4000	-2.63015E+006	323.728
276.3000	-2.02391E+006	323.732
276.2000	-1.47708E+006	323.737
276.1000	-1.13328E+006	323.744
276.0000	-1.29224E+006	323.768
275.9000	-1.388E+006	323.79
275.8000	-956146	323.813
275.7000	-720134	323.842
275.6000	-763702	323.87
275.5000	-960892	323.893
275.4000	-1.207E+006	323.917
275.3000	-1.11246E+006	323.935
275.2000	-904653	323.946
275.1000	-964544	323.952
275.0000	-1.50828E+006	323.953
274.9000	-1.86823E+006	323.956
274.8000	-1.80007E+006	323.962
274.7000	-1.64032E+006	323.966
274.6000	-1.46265E+006	323.968
274.5000	-1.39541E+006	323.974
274.4000	-1.44742E+006	323.982
274.3000	-1.29909E+006	323.989
274.2000	-809158	324.001
274.1000	-811000	324.01
274.0000	-897390	324.014
273.9000	-1.0318E+006	324.022
273.8000	-955938	324.037
273.7000	-647837	324.053
273.6000	-575450	324.069
273.5000	-591314	324.083
273.4000	-940084	324.094
273.3000	-883408	324.11
273.2000	-545715	324.127
273.1000	-788747	324.142
273.0000	-1.18734E+006	324.154
272.9000	-1.59776E+006	324.168
272.8000	-1.26908E+006	324.18
272.7000	-821309	324.193
272.6000	-467555	324.208
272.5000	103231	324.224
272.4000	208969	324.238
272.3000	410634	324.252
272.2000	958506	324.267
272.1000	1.22147E+006	324.282
272.0000	1.09969E+006	324.297
271.9000	843308	324.314
271.8000	670497	324.33
271.7000	552221	324.349
271.6000	-207342	324.359
271.5000	-279933	324.374
271.4000	-79818.7	324.398
271.3000	-302958	324.419
271.2000	-553747	324.436
271.1000	-558884	324.451
271.0000	-723429	324.458
270.9000	-1.04306E+006	324.449
270.8000	-965271	324.441
270.7000	-1.07174E+006	324.438
270.6000	-1.43292E+006	324.429
270.5000	-1.62385E+006	324.414
270.4000	-1.8533E+006	324.4
270.3000	-2.16025E+006	324.386
270.2000	-2.33406E+006	324.385
270.1000	-2.14047E+006	324.4
270.0000	-1.87014E+006	324.423
269.9000	-1.70313E+006	324.446
269.8000	-1.33447E+006	324.466
269.7000	-923706	324.482
269.6000	-450353	324.499
269.5000	-178899	324.517
269.4000	95708.2	324.52
269.3000	265991	324.521
269.2000	227671	324.524
269.1000	472015	324.53
269.0000	1.00013E+006	324.541
268.9000	787974	324.56
268.8000	584829	324.58
268.7000	484019	324.603
268.6000	452494	324.637
268.5000	375910	324.682
268.4000	270620	324.724
268.3000	35786.9	324.752
268.2000	-209045	324.778
268.1000	-271027	324.803
268.0000	-50842.3	324.832
267.9000	47963.5	324.864
267.8000	-283834	324.899
267.7000	-481766	324.936
267.6000	-982239	324.972
267.5000	-1.2535E+006	325.02
267.4000	-1.6055E+006	325.056
267.3000	-1.52089E+006	325.096
267.2000	-1.25755E+006	325.142
267.1000	-1.4118E+006	325.192
267.0000	-1.12823E+006	325.248
266.9000	-694901	325.303
266.8000	-472916	325.354
266.7000	-254857	325.386
266.6000	307831	325.435
266.5000	31402.6	325.488
266.4000	-834132	325.536
266.3000	-995544	325.588
266.2000	-1.21334E+006	325.635
266.1000	-1.30659E+006	325.688
266.0000	-1.14436E+006	325.721
265.9000	-911855	325.773
265.8000	-729218	325.835
265.7000	-343592	325.891
265.6000	242910	325.954
265.5000	432887	326.011
265.4000	1.01397E+006	326.057
265.3000	1.27451E+006	326.092
265.2000	1.13869E+006	326.14
265.1000	963394	326.2
265.0000	933762	326.257
264.9000	509649	326.322
264.8000	104319	326.363
264.7000	-180751	326.407
264.6000	-909653	326.46
264.5000	-1.61782E+006	326.519
264.4000	-1.74353E+006	326.587
264.3000	-1.86179E+006	326.635
264.2000	-2.27913E+006	326.681
264.1000	-2.34705E+006	326.73
264.0000	-2.23772E+006	326.791
263.9000	-2.30289E+006	326.864
263.8000	-1.99132E+006	326.928
263.7000	-1.84267E+006	326.995
263.6000	-1.79636E+006	327.07
263.5000	-1.75726E+006	327.153
263.4000	-1.40622E+006	327.246
263.3000	-1.07026E+006	327.31
263.2000	-1.08212E+006	327.372
263.1000	-649806	327.443
263.0000	165293	327.514
262.9000	641688	327.577
262.8000	779353	327.638
262.7000	1.08118E+006	327.701
262.6000	1.03354E+006	327.759
262.5000	1.00633E+006	327.831
262.4000	1.01941E+006	327.902
262.3000	1.0825E+006	327.969
262.2000	810155	328.025
262.1000	661621	328.095
262.0000	474309	328.149
261.9000	379349	328.206
261.8000	-242635	328.264
261.7000	-615356	328.319
261.6000	-789093	328.382
261.5000	-1.05948E+006	328.454
261.4000	-1.3548E+006	328.537
261.3000	-1.55015E+006	328.613
261.2000	-1.74285E+006	328.703
261.1000	-1.45243E+006	328.796
261.0000	-652939	328.887
260.9000	167130	328.967
260.8000	560486	329.054
260.7000	812220	329.137
260.6000	683935	329.205
260.5000	715347	329.28
260.4000	843669	329.361
260.3000	543910	329.437
260.2000	337560	329.499
260.1000	349553	329.576
260.0000	-189891	329.657
259.9000	-282186	329.725
259.8000	102341	329.807
259.7000	745550	329.889
259.6000	790181	329.953
259.5000	168640	330.011
259.4000	-78369.1	330.084
259.3000	-227361	330.149
259.2000	100113	330.221
259.1000	278519	330.301
259.0000	308212	330.365
258.9000	-25049.8	330.427
258.8000	-104655	330.5
258.7000	568695	330.573
258.6000	972488	330.649
258.5000	820903	330.732
258.4000	568960	330.804
258.3000	756277	330.881
258.2000	741135	330.972
258.1000	407908	331.056
258.0000	62225.3	331.146
257.9000	231567	331.242
257.8000	575556	331.323
257.7000	879796	331.406
257.6000	873647	331.504
257.5000	275813	331.592
257.4000	-16372.7	331.685
257.3000	-145355	331.768
257.2000	-196752	331.844
257.1000	-378153	331.917
257.0000	-925217	331.994
256.9000	-1.29947E+006	332.077
256.8000	-1.39723E+006	332.142
256.7000	-1.02305E+006	332.217
256.6000	-972356	332.298
256.5000	-828461	332.38
256.4000	-456538	332.476
256.3000	-12822.5	332.564
256.2000	572128	332.652
256.1000	1.3242E+006	332.741
256.0000	1.66168E+006	332.826
255.9000	1.72184E+006	332.921
255.8000	1.82032E+006	333.003
255.7000	1.97372E+006	333.082
255.6000	2.13716E+006	333.159
255.5000	2.37772E+006	333.239
255.4000	2.16584E+006	333.327
255.3000	1.63824E+006	333.412
255.2000	1.22965E+006	333.507
255.1000	1.23028E+006	333.596
255.0000	1.54303E+006	333.689
254.9000	2.04885E+006	333.768
254.8000	1.97769E+006	333.853
254.7000	1.53374E+006	333.945
254.6000	1.39415E+006	334.032
254.5000	887985	334.115
254.4000	570165	334.184
254.3000	214589	334.255
254.2000	-283585	334.326
254.1000	-661560	334.408
254.0000	-1.00253E+006	334.482
253.9000	-1.31298E+006	334.551
253.8000	-1.62734E+006	334.609
253.7000	-1.35171E+006	334.677
253.6000	-811813	334.749
253.5000	-499222	334.827
253.4000	-14760.3	334.89
253.3000	-5788.17	334.95
253.2000	-147369	335.013
253.1000	-412715	335.087
253.0000	-896861	335.165
252.9000	-1.09127E+006	335.248
252.8000	-1.17657E+006	335.323
252.7000	-540736	335.401
252.6000	-521189	335.476
252.5000	-1.03699E+006	335.554
252.4000	-1.10149E+006	335.623
252.3000	-766769	335.703
252.2000	157023	335.781
252.1000	1.10353E+006	335.866
252.0000	1.19544E+006	335.942
251.9000	546199	336.006
251.8000	449743	336.079
251.7000	942383	336.146
251.6000	867645	336.232
251.5000	608027	336.31
251.4000	390610	336.397
251.3000	164368	336.477
251.2000	112274	336.551
251.1000	228831	336.642
251.0000	-510951	336.724
250.9000	-1.37536E+006	336.817
250.8000	-1.59193E+006	336.901
250.7000	-1.38512E+006	336.992
250.6000	-1.32649E+006	337.073
250.5000	-1.33383E+006	337.149
250.4000	-1.65727E+006	337.238
250.3000	-2.12194E+006	337.323
250.2000	-1.73714E+006	337.421
250.1000	-913188	337.516
250.0000	-836019	337.608
249.9000	-333344	337.709
249.8000	-182414	337.8
249.7000	250758	337.904
249.6000	553965	337.999
249.5000	494914	338.095
249.4000	355392	338.19
249.3000	-172114	338.271
249.2000	-293752	338.349
249.1000	-521561	338.428
249.0000	-540166	338.512
248.9000	-867325	338.591
248.8000	-1.0038E+006	338.667
248.7000	-498617	338.74
248.6000	-159754	338.805
248.5000	430054	338.886
248.4000	607864	338.969
248.3000	380096	339.043
248.2000	228012	339.12
248.1000	148499	339.194
248.0000	-431610	339.269
247.9000	-1.16107E+006	339.354
247.8000	-1.89356E+006	339.438
247.7000	-2.77181E+006	339.516
247.6000	-3.48855E+006	339.603
247.5000	-3.30891E+006	339.692
247.4000	-3.17898E+006	339.771
247.3000	-3.70727E+006	339.836
247.2000	-4.23039E+006	339.906
247.1000	-4.01834E+006	339.974
247.0000	-3.87499E+006	340.047
246.9000	-3.05523E+006	340.131
246.8000	-2.30991E+006	340.2
246.7000	-1.74978E+006	340.262
246.6000	-1.86935E+006	340.33
246.5000	-1.7319E+006	340.419
246.4000	-904597	340.507
246.3000	-375214	340.593
246.2000	460785	340.677
246.1000	618708	340.763
246.0000	322077	340.852
245.9000	-448776	340.944
245.8000	-1.12011E+006	341.04
245.7000	-1.22463E+006	341.137
245.6000	-1.43693E+006	341.225
245.5000	-1.72784E+006	341.322
245.4000	-2.10507E+006	341.425
245.3000	-2.06512E+006	341.528
245.2000	-1.38036E+006	341.641
245.1000	-1.23461E+006	341.751
245.0000	-1.05071E+006	341.867
244.9000	-998164	341.973
244.8000	-956635	342.077
244.7000	-1.26418E+006	342.191
244.6000	-1.37007E+006	342.3
244.5000	-1.69092E+006	342.402
244.4000	-2.49315E+006	342.487
244.3000	-2.5039E+006	342.574
244.2000	-1.86694E+006	342.668
244.1000	-1.50283E+006	342.769
244.0000	-1.51694E+006	342.875
243.9000	-1.37981E+006	342.98
243.8000	-1.25107E+006	343.077
243.7000	-1.39629E+006	343.175
243.6000	-1.38709E+006	343.284
243.5000	-1.89559E+006	343.391
243.4000	-2.25054E+006	343.503
243.3000	-2.45516E+006	343.608
243.2000	-1.89644E+006	343.714
243.1000	-1.34469E+006	343.814
243.0000	-768575	343.906
242.9000	-413244	344
242.8000	-59702.6	344.095
242.7000	187185	344.189
242.6000	150528	344.277
242.5000	539098	344.367
242.4000	665497	344.467
242.3000	526281	344.574
242.2000	-554647	344.687
242.1000	-1.27826E+006	344.808
242.0000	-1.69609E+006	344.932
241.9000	-1.51855E+006	345.064
241.8000	-951274	345.204
241.7000	-1.08877E+006	345.336
241.6000	-1.32107E+006	345.464
241.5000	-1.38473E+006	345.597
241.4000	-1.23307E+006	345.73
241.3000	-1.01012E+006	345.857
241.2000	-1.05877E+006	345.975
241.1000	-1.30489E+006	346.094
241.0000	-1.95234E+006	346.221
240.9000	-2.2718E+006	346.361
240.8000	-2.51251E+006	346.498
240.7000	-3.4114E+006	346.626
240.6000	-4.10212E+006	346.75
240.5000	-4.38646E+006	346.877
240.4000	-4.43132E+006	347.009
240.3000	-4.18857E+006	347.147
240.2000	-3.68784E+006	347.279
240.1000	-3.2786E+006	347.402
240.0000	-3.47692E+006	347.531
239.9000	-2.88623E+006	347.668
239.8000	-2.50924E+006	347.809
239.7000	-1.98034E+006	347.951
239.6000	-1.59085E+006	348.101
239.5000	-1.77702E+006	348.256
239.4000	-1.52332E+006	348.41
239.3000	-1.5894E+006	348.568
239.2000	-1.07056E+006	348.728
239.1000	-867172	348.886
239.0000	-680725	349.048
238.9000	-349345	349.208
238.8000	-18976.8	349.369
238.7000	49382.5	349.53
238.6000	-557866	349.686
238.5000	-398585	349.843
238.4000	-104919	350.003
238.3000	74910.5	350.161
238.2000	-393880	350.315
238.1000	-1.02778E+006	350.474
238.0000	-1.30773E+006	350.641
237.9000	-1.09042E+006	350.815
237.8000	-964162	350.984
237.7000	-1.36832E+006	351.153
237.6000	-2.35248E+006	351.324
237.5000	-3.07776E+006	351.501
237.4000	-3.1419E+006	351.681
237.3000	-2.61726E+006	351.866
237.2000	-2.81341E+006	352.051
237.1000	-3.2232E+006	352.226
237.0000	-3.66246E+006	352.403
236.9000	-4.37497E+006	352.582
236.8000	-4.64097E+006	352.758
236.7000	-4.7315E+006	352.928
236.6000	-4.96976E+006	353.09
236.5000	-5.42242E+006	353.253
236.4000	-5.59844E+006	353.417
236.3000	-5.75239E+006	353.59
236.2000	-6.12191E+006	353.767
236.1000	-6.41331E+006	353.941
236.0000	-6.44231E+006	354.119
235.9000	-6.62709E+006	354.303
235.8000	-6.43576E+006	354.504
235.7000	-6.47769E+006	354.704
235.6000	-5.98452E+006	354.906
235.5000	-6.08592E+006	355.101
235.4000	-5.72526E+006	355.298
235.3000	-4.89645E+006	355.5
235.2000	-3.35055E+006	355.707
235.1000	-2.86728E+006	355.91
235.0000	-2.95436E+006	356.111
234.9000	-3.19927E+006	356.309
234.8000	-3.7145E+006	356.512
234.7000	-3.703E+006	356.718
234.6000	-3.37151E+006	356.918
234.5000	-3.75044E+006	357.117
234.4000	-3.98151E+006	357.322
234.3000	-4.10727E+006	357.529
234.2000	-3.83128E+006	357.735
234.1000	-3.63494E+006	357.942
234.0000	-3.40665E+006	358.139
233.9000	-3.62765E+006	358.336
233.8000	-4.09492E+006	358.542
233.7000	-4.09754E+006	358.75
233.6000	-4.56642E+006	358.957
233.5000	-5.19656E+006	359.169
233.4000	-5.62796E+006	359.372
233.3000	-6.03182E+006	359.582
233.2000	-6.51848E+006	359.804
233.1000	-6.70097E+006	360.021
233.0000	-6.84496E+006	360.237
232.9000	-6.68835E+006	360.453
232.8000	-6.65156E+006	360.673
232.7000	-6.30117E+006	360.898
232.6000	-6.08628E+006	361.126
232.5000	-5.87288E+006	361.355
232.4000	-6.18369E+006	361.571
232.3000	-5.60466E+006	361.797
232.2000	-5.13177E+006	362.019
232.1000	-5.44581E+006	362.247
232.0000	-6.00324E+006	362.47
231.9000	-6.35783E+006	362.689
231.8000	-6.56549E+006	362.896
231.7000	-6.68999E+006	363.111
231.6000	-6.18175E+006	363.337
231.5000	-7.01964E+006	363.554
231.4000	-7.61754E+006	363.779
231.3000	-7.65488E+006	364.001
231.2000	-7.94296E+006	364.224
231.1000	-8.07616E+006	364.447
231.0000	-8.8548E+006	364.67
230.9000	-9.66656E+006	364.896
230.8000	-1.07914E+007	365.117
230.7000	-1.09079E+007	365.35
230.6000	-1.07345E+007	365.582
230.5000	-1.08745E+007	365.818
230.4000	-1.05164E+007	366.058
230.3000	-1.03159E+007	366.299
230.2000	-1.02271E+007	366.536
230.1000	-9.98552E+006	366.782
230.0000	-9.6581E+006	367.026
229.9000	-9.41585E+006	367.261
229.8000	-9.33481E+006	367.496
229.7000	-9.63432E+006	367.726
229.6000	-1.03355E+007	367.951
229.5000	-1.08817E+007	368.169
229.4000	-1.04268E+007	368.387
229.3000	-1.06079E+007	368.601
229.2000	-1.03338E+007	368.808
229.1000	-9.80785E+006	369.015
229.0000	-9.84779E+006	369.224
228.9000	-1.00539E+007	369.433
228.8000	-9.66404E+006	369.643
228.7000	-9.39876E+006	369.869
228.6000	-9.32494E+006	370.105
228.5000	-9.76102E+006	370.346
228.4000	-9.64946E+006	370.601
228.3000	-1.00984E+007	370.863
228.2000	-1.05179E+007	371.124
228.1000	-1.07417E+007	371.391
228.0000	-1.08071E+007	371.659
227.9000	-1.14147E+007	371.926
227.8000	-1.18985E+007	372.187
227.7000	-1.24299E+007	372.447
227.6000	-1.2925E+007	372.7
227.5000	-1.35093E+007	372.952
227.4000	-1.39294E+007	373.204
227.3000	-1.41335E+007	373.46
227.2000	-1.40534E+007	373.717
227.1000	-1.35536E+007	373.972
227.0000	-1.34145E+007	374.222
226.9000	-1.31552E+007	374.464
226.8000	-1.32355E+007	374.708
226.7000	-1.30878E+007	374.953
226.6000	-1.34286E+007	375.189
226.5000	-1.36243E+007	375.421
226.4000	-1.37363E+007	375.647
226.3000	-1.38699E+007	375.874
226.2000	-1.42817E+007	376.109
226.1000	-1.43052E+007	376.344
226.0000	-1.39345E+007	376.577
225.9000	-1.36494E+007	376.807
225.8000	-1.3382E+007	377.037
225.7000	-1.31253E+007	377.272
225.6000	-1.29628E+007	377.508
225.5000	-1.36927E+007	377.737
225.4000	-1.38893E+007	377.965
225.3000	-1.34806E+007	378.202
225.2000	-1.34775E+007	378.443
225.1000	-1.39285E+007	378.684
225.0000	-1.40779E+007	378.926
224.9000	-1.33941E+007	379.166
224.8000	-1.3202E+007	379.401
224.7000	-1.27883E+007	379.642
224.6000	-1.27873E+007	379.877
224.5000	-1.30847E+007	380.109
224.4000	-1.34546E+007	380.331
224.3000	-1.29977E+007	380.56
224.2000	-1.26418E+007	380.79
224.1000	-1.21777E+007	381.027
224.0000	-1.26391E+007	381.26
223.9000	-1.27681E+007	381.493
223.8000	-1.27629E+007	381.724
223.7000	-1.32534E+007	381.96
223.6000	-1.33403E+007	382.205
223.5000	-1.345E+007	382.447
223.4000	-1.41924E+007	382.686
223.3000	-1.54704E+007	382.914
223.2000	-1.60789E+007	383.144
223.1000	-1.58904E+007	383.382
223.0000	-1.54914E+007	383.624
222.9000	-1.53663E+007	383.859
222.8000	-1.48391E+007	384.096
222.7000	-1.47165E+007	384.331
222.6000	-1.46152E+007	384.566
222.5000	-1.39497E+007	384.811
222.4000	-1.41838E+007	385.048
222.3000	-1.4188E+007	385.283
222.2000	-1.39398E+007	385.516
222.1000	-1.36605E+007	385.753
222.0000	-1.31128E+007	385.991
221.9000	-1.33678E+007	386.217
221.8000	-1.37071E+007	386.442
221.7000	-1.42295E+007	386.668
221.6000	-1.34327E+007	386.9
221.5000	-1.326E+007	387.133
221.4000	-1.34316E+007	387.362
221.3000	-1.36921E+007	387.591
221.2000	-1.42205E+007	387.818
221.1000	-1.43717E+007	388.048
221.0000	-1.36018E+007	388.278
220.9000	-1.26592E+007	388.51
220.8000	-1.19479E+007	388.746
220.7000	-1.13122E+007	388.977
220.6000	-1.07223E+007	389.215
220.5000	-1.02429E+007	389.457
220.4000	-9.45132E+006	389.689
220.3000	-9.2253E+006	389.923
220.2000	-9.2153E+006	390.16
220.1000	-9.42491E+006	390.394
220.0000	-9.53165E+006	390.631
219.9000	-1.03982E+007	390.871
219.8000	-1.12241E+007	391.105
219.7000	-1.20616E+007	391.331
219.6000	-1.28729E+007	391.56
219.5000	-1.2775E+007	391.803
219.4000	-1.27411E+007	392.045
219.3000	-1.29106E+007	392.283
219.2000	-1.36036E+007	392.52
219.1000	-1.41871E+007	392.751
219.0000	-1.49868E+007	392.989
218.9000	-1.43742E+007	393.233
218.8000	-1.39413E+007	393.479
218.7000	-1.42809E+007	393.708
218.6000	-1.49356E+007	393.933
218.5000	-1.50368E+007	394.166
218.4000	-1.41545E+007	394.407
218.3000	-1.42461E+007	394.641
218.2000	-1.41228E+007	394.875
218.1000	-1.40242E+007	395.108
218.0000	-1.44935E+007	395.342
217.9000	-1.51668E+007	395.575
217.8000	-1.51121E+007	395.814
217.7000	-1.52857E+007	396.054
217.6000	-1.60966E+007	396.279
217.5000	-1.68368E+007	396.514
217.4000	-1.66425E+007	396.749
217.3000	-1.63736E+007	396.986
217.2000	-1.63192E+007	397.224
217.1000	-1.51762E+007	397.465
217.0000	-1.42021E+007	397.709
216.9000	-1.4124E+007	397.948
216.8000	-1.44612E+007	398.189
216.7000	-1.47751E+007	398.424
216.6000	-1.43848E+007	398.666
216.5000	-1.36343E+007	398.906
216.4000	-1.37662E+007	399.139
216.3000	-1.48725E+007	399.365
216.2000	-1.64829E+007	399.595
216.1000	-1.7547E+007	399.828
216.0000	-1.73481E+007	400.064
215.9000	-1.63495E+007	400.305
215.8000	-1.55448E+007	400.542
215.7000	-1.56969E+007	400.781
215.6000	-1.6787E+007	401.024
215.5000	-1.64901E+007	401.276
215.4000	-1.56414E+007	401.526
215.3000	-1.39737E+007	401.776
215.2000	-1.26335E+007	402.024
215.1000	-1.26242E+007	402.282
215.0000	-1.29471E+007	402.539
214.9000	-1.31917E+007	402.793
214.8000	-1.27966E+007	403.049
214.7000	-1.26445E+007	403.304
214.6000	-1.29142E+007	403.563
214.5000	-1.33855E+007	403.818
214.4000	-1.42866E+007	404.073
214.3000	-1.50618E+007	404.329
214.2000	-1.54454E+007	404.584
214.1000	-1.54672E+007	404.839
214.0000	-1.5068E+007	405.097
213.9000	-1.49873E+007	405.354
213.8000	-1.55434E+007	405.607
213.7000	-1.54194E+007	405.865
213.6000	-1.50212E+007	406.127
213.5000	-1.52346E+007	406.388
213.4000	-1.45372E+007	406.649
213.3000	-1.48866E+007	406.912
213.2000	-1.41409E+007	407.188
213.1000	-1.46807E+007	407.463
213.0000	-1.27345E+007	407.749
212.9000	-1.17724E+007	408.036
212.8000	-1.21988E+007	408.314
212.7000	-1.14103E+007	408.603
212.6000	-1.09785E+007	408.894
212.5000	-9.9295E+006	409.186
212.4000	-9.48555E+006	409.474
212.3000	-9.54842E+006	409.756
212.2000	-1.0418E+007	410.038
212.1000	-1.13912E+007	410.324
212.0000	-1.17889E+007	410.62
211.9000	-1.18077E+007	410.915
211.8000	-1.24903E+007	411.207
211.7000	-1.3406E+007	411.509
211.6000	-1.43676E+007	411.812
211.5000	-1.53388E+007	412.115
211.4000	-1.52996E+007	412.423
211.3000	-1.50026E+007	412.734
211.2000	-1.4936E+007	413.039
211.1000	-1.51024E+007	413.347
211.0000	-1.4701E+007	413.666
210.9000	-1.37243E+007	413.98
210.8000	-1.36667E+007	414.292
210.7000	-1.29015E+007	414.614
210.6000	-1.15856E+007	414.933
210.5000	-1.11976E+007	415.26
210.4000	-1.05012E+007	415.584
210.3000	-1.03083E+007	415.915
210.2000	-1.10702E+007	416.238
210.1000	-1.25292E+007	416.559
210.0000	-1.34166E+007	416.886
209.9000	-1.40146E+007	417.215
209.8000	-1.46099E+007	417.544
209.7000	-1.50777E+007	417.879
209.6000	-1.63547E+007	418.213
209.5000	-1.64248E+007	418.556
209.4000	-1.55985E+007	418.903
209.3000	-1.44019E+007	419.252
209.2000	-1.4283E+007	419.604
209.1000	-1.40602E+007	419.953
209.0000	-1.46216E+007	420.302
208.9000	-1.42064E+007	420.66
208.8000	-1.28875E+007	421.018
208.7000	-1.17129E+007	421.371
208.6000	-1.11559E+007	421.731
208.5000	-1.1484E+007	422.094
208.4000	-1.15001E+007	422.456
208.3000	-1.10809E+007	422.824
208.2000	-1.12222E+007	423.195
208.1000	-1.18444E+007	423.562
208.0000	-1.34583E+007	423.924
207.9000	-1.46014E+007	424.294
207.8000	-1.56862E+007	424.67
207.7000	-1.69048E+007	425.038
207.6000	-1.71765E+007	425.41
207.5000	-1.63794E+007	425.785
207.4000	-1.65741E+007	426.158
207.3000	-1.67547E+007	426.529
207.2000	-1.63833E+007	426.901
207.1000	-1.62223E+007	427.277
207.0000	-1.62272E+007	427.653
206.9000	-1.56492E+007	428.033
206.8000	-1.51891E+007	428.414
206.7000	-1.47906E+007	428.8
206.6000	-1.49377E+007	429.186
206.5000	-1.40091E+007	429.578
206.4000	-1.39234E+007	429.967
206.3000	-1.37342E+007	430.363
206.2000	-1.34568E+007	430.748
206.1000	-1.3996E+007	431.127
206.0000	-1.40146E+007	431.514
205.9000	-1.42852E+007	431.902
205.8000	-1.46454E+007	432.286
205.7000	-1.61425E+007	432.67
205.6000	-1.56084E+007	433.068
205.5000	-1.50551E+007	433.469
205.4000	-1.4916E+007	433.867
205.3000	-1.5291E+007	434.275
205.2000	-1.44609E+007	434.688
205.1000	-1.30651E+007	435.109
205.0000	-1.2854E+007	435.525
204.9000	-1.23205E+007	435.943
204.8000	-1.14127E+007	436.364
204.7000	-1.09061E+007	436.787
204.6000	-1.01262E+007	437.219
204.5000	-9.50626E+006	437.646
204.4000	-9.52538E+006	438.071
204.3000	-1.01928E+007	438.498
204.2000	-1.06277E+007	438.925
204.1000	-1.0403E+007	439.357
204.0000	-9.26723E+006	439.803
203.9000	-9.4382E+006	440.243
203.8000	-1.04192E+007	440.679
203.7000	-1.11424E+007	441.123
203.6000	-1.07459E+007	441.583
203.5000	-9.17305E+006	442.048
203.4000	-8.47551E+006	442.51
203.3000	-7.70675E+006	442.981
203.2000	-6.77627E+006	443.461
203.1000	-5.51296E+006	443.95
203.0000	-4.66326E+006	444.446
202.9000	-3.92934E+006	444.945
202.8000	-3.63296E+006	445.438
202.7000	-3.65788E+006	445.936
202.6000	-3.44889E+006	446.436
202.5000	-3.22981E+006	446.944
202.4000	-3.74222E+006	447.451
202.3000	-4.88437E+006	447.96
202.2000	-4.37497E+006	448.475
202.1000	-1.78939E+006	448.999
202.0000	-214691	449.529
201.9000	-115626	450.062
201.8000	877482	450.606
201.7000	2.26978E+006	451.162
201.6000	2.13497E+006	451.721
201.5000	2.77476E+006	452.282
201.4000	2.99986E+006	452.85
201.3000	1.43638E+006	453.423
201.2000	1.50415E+006	454.01
201.1000	1.56139E+006	454.598
201.0000	2.21655E+006	455.204
200.9000	2.87453E+006	455.815
200.8000	4.73236E+006	456.434
200.7000	6.4721E+006	457.059
200.6000	8.11045E+006	457.7
200.5000	1.00361E+007	458.352
200.4000	1.07936E+007	459.014
200.3000	1.11578E+007	459.69
200.2000	1.00331E+007	460.364
200.1000	1.01803E+007	461.049
200.0000	9.98921E+006	461.744
199.9000	9.65119E+006	462.447
199.8000	9.61358E+006	463.157
199.7000	9.4673E+006	463.863
199.6000	9.20936E+006	464.579
199.5000	1.11738E+007	465.312
199.4000	1.35749E+007	466.058
199.3000	1.32805E+007	466.802
199.2000	1.3855E+007	467.567
199.1000	1.42655E+007	468.35
199.0000	1.52482E+007	469.157
198.9000	1.57282E+007	469.99
198.8000	1.48732E+007	470.836
198.7000	1.42622E+007	471.702
198.6000	1.34254E+007	472.588
198.5000	1.45833E+007	473.507
198.4000	1.72582E+007	474.454
198.3000	1.76627E+007	475.414
198.2000	1.6595E+007	476.396
198.1000	1.54737E+007	477.405
198.0000	1.71692E+007	478.461
197.9000	1.98315E+007	479.554
197.8000	2.11503E+007	480.678
197.7000	2.07411E+007	481.834
197.6000	1.93995E+007	483.01
197.5000	1.79747E+007	484.206
197.4000	1.95042E+007	485.427
197.3000	2.26154E+007	486.662
197.2000	2.3949E+007	487.881
197.1000	2.38222E+007	489.078
197.0000	2.31578E+007	490.272
196.9000	2.33759E+007	491.464
196.8000	2.34638E+007	492.663
196.7000	2.53179E+007	493.893
196.6000	2.53959E+007	495.145
196.5000	2.47484E+007	496.435
196.4000	2.39497E+007	497.79
196.3000	2.48039E+007	499.224
196.2000	2.59344E+007	500.732
196.1000	2.84321E+007	502.326
196.0000	3.10535E+007	503.999
195.9000	3.18836E+007	505.76
195.8000	3.30901E+007	507.615
195.7000	3.47472E+007	509.599
195.6000	3.58196E+007	511.695
195.5000	3.50905E+007	513.915
195.4000	3.17986E+007	516.254
195.3000	3.04283E+007	518.702
195.2000	3.0588E+007	521.243
195.1000	2.96079E+007	523.846
195.0000	2.83204E+007	526.454
194.9000	2.83168E+007	529.016
194.8000	2.65216E+007	531.472
194.7000	2.65773E+007	533.818
194.6000	2.95698E+007	536.062
194.5000	3.14814E+007	538.206
194.4000	3.18E+007	540.279
194.3000	3.29708E+007	542.314
194.2000	3.43218E+007	544.377
194.1000	3.41651E+007	546.543
194.0000	3.41615E+007	548.873
193.9000	3.65683E+007	551.444
193.8000	3.76486E+007	554.265
193.7000	3.91875E+007	557.378
193.6000	4.2802E+007	560.806
193.5000	4.53382E+007	564.593
193.4000	4.85199E+007	568.777
193.3000	5.02937E+007	573.355
193.2000	5.17507E+007	578.311
193.1000	5.21138E+007	583.622
193.0000	5.68517E+007	589.252
192.9000	5.92591E+007	595.082
192.8000	5.95584E+007	601.003
192.7000	5.37559E+007	606.82
192.6000	4.93692E+007	612.35
192.5000	4.02907E+007	617.438
192.4000	3.31579E+007	622.081
192.3000	3.23199E+007	626.316
192.2000	2.8015E+007	630.113
192.1000	2.42399E+007	633.549
192.0000	2.20228E+007	636.775
191.9000	3.00925E+007	640.021
191.8000	3.54948E+007	643.473
191.7000	4.21568E+007	647.387
191.6000	4.58391E+007	651.855
191.5000	3.98096E+007	656.872
191.4000	4.08276E+007	662.567
191.3000	4.03309E+007	669.008
191.2000	4.00756E+007	676.23
191.1000	3.3765E+007	684.166
191.0000	2.32609E+007	692.759
190.9000	1.17828E+007	701.919
190.8000	7.18718E+006	711.572
190.7000	1.84659E+007	721.7
190.6000	2.73517E+007	732.032
190.5000	3.22497E+007	742.291
190.4000	3.39913E+007	752.155
190.3000	3.83923E+007	761.459
190.2000	3.94099E+007	770.08
190.1000	3.15495E+007	777.922
190.0000	2.66127E+007	785.077

##### Extended Information
[Comments]
Sample name	ACE2_D2_0.2uM
Comment
User
Division
Company	CSIR-IMTECH

[Detailed Information]
Creation date	2/26/2024 3:36 PM

Data array type	Linear data array * 2
Horizontal axis	Wavelength [nm]
Vertical axis(1)	Mol. Ellip.
Vertical axis(2)	HT [V]
Start	350 nm
End	190 nm
Data interval	0.1 nm
Data points	1601    

[Measurement Information]
Instrument Name	JASCO CD
Model Name	J-815
Serial No.	B063061168

Accessory	PTC-423S
Accessory S/N	C013945-01
  Temperature	37.51 C
  Control Sonsor	Cell
  Monitor Sensor	Cell
  Start Mode	Start immediately
  Cell Length	10 mm

Measurement date	2/26/2024 3:34 PM

Photometric Mode	CD, HT
Measure Range	350 - 190 nm
Data pitch	0.1 nm
Sensitivity	Standard
D.I.T.	1 sec
Bandwidth	1.00 nm
Start Mode	Immediately
Scanning Speed	50 nm/min
Baseline Correction	Baseline
Shutter Control	Manual
CD Detector	PMT
PMT Voltage	Auto
Accumulations	3
Concentration	0.2 umol/L

