TITLE	ACE2_seo_0.8uM
DATA TYPE	
ORIGIN	JASCO
OWNER	
DATE	24/04/08
TIME	17:36:45
SPECTROMETER/DATA SYSTEM	
LOCALE	1033
RESOLUTION	
DELTAX	-0.1
XUNITS	NANOMETERS
YUNITS	Mol. Ellip.
Y2UNITS	HT [V]
FIRSTX	  350.0000
LASTX	  190.0000
NPOINTS	    1601
FIRSTY	-1990654.12500
MAXY	21611544.00000
MINY	-8926407.00000
XYDATA
350.0000	-1.99065E+006	482.867
349.9000	-2.53942E+006	482.237
349.8000	-2.45488E+006	481.314
349.7000	-3.31136E+006	480.374
349.6000	-2.64743E+006	479.715
349.5000	-2.32433E+006	479.142
349.4000	-2.22391E+006	478.261
349.3000	-2.46933E+006	477.627
349.2000	-2.40342E+006	477.092
349.1000	-1.78257E+006	476.245
349.0000	-1.82435E+006	475.618
348.9000	-1.3468E+006	475.078
348.8000	-1.20125E+006	474.243
348.7000	-1.09936E+006	473.396
348.6000	-627016	472.793
348.5000	-147844	472.27
348.4000	595832	471.412
348.3000	86939	470.766
348.2000	-164940	470.202
348.1000	-228065	469.34
348.0000	41398.5	468.685
347.9000	968418	468.115
347.8000	1.58859E+006	467.26
347.7000	913356	466.383
347.6000	699575	465.758
347.5000	379639	465.241
347.4000	616400	464.441
347.3000	599815	463.844
347.2000	1.07004E+006	463.342
347.1000	1.19844E+006	462.594
347.0000	842666	462.046
346.9000	939539	461.579
346.8000	1.13061E+006	460.843
346.7000	1.36211E+006	460.096
346.6000	843328	459.537
346.5000	220736	458.775
346.4000	-551271	457.994
346.3000	-1.34429E+006	457.383
346.2000	-2.22558E+006	456.586
346.1000	-2.77454E+006	455.779
346.0000	-3.64597E+006	455.169
345.9000	-3.977E+006	454.638
345.8000	-3.74866E+006	453.829
345.7000	-3.19676E+006	453.242
345.6000	-2.94447E+006	452.748
345.5000	-2.4401E+006	452.046
345.4000	-1.86926E+006	451.539
345.3000	-764354	451.121
345.2000	-12626.5	450.438
345.1000	121045	449.741
345.0000	-566903	449.233
344.9000	-915180	448.584
344.8000	-1.24629E+006	447.918
344.7000	-1.78387E+006	447.396
344.6000	-2.50929E+006	446.701
344.5000	-3.35389E+006	445.989
344.4000	-3.48895E+006	445.459
344.3000	-3.32022E+006	444.782
344.2000	-3.28183E+006	444.095
344.1000	-2.86644E+006	443.58
344.0000	-2.58834E+006	442.912
343.9000	-1.94407E+006	442.245
343.8000	-1.15371E+006	441.767
343.7000	-515933	441.362
343.6000	-324470	440.736
343.5000	72538	440.286
343.4000	1.31108E+006	439.916
343.3000	1.72904E+006	439.281
343.2000	1.41728E+006	438.81
343.1000	1.67609E+006	438.409
343.0000	1.63457E+006	437.826
342.9000	1.2581E+006	437.224
342.8000	1.23439E+006	436.772
342.7000	438985	436.144
342.6000	-339718	435.502
342.5000	-1.42794E+006	435.033
342.4000	-1.71725E+006	434.462
342.3000	-1.49007E+006	433.89
342.2000	-1.64318E+006	433.437
342.1000	-1.91302E+006	432.843
342.0000	-2.35701E+006	432.249
341.9000	-2.80388E+006	431.837
341.8000	-2.8137E+006	431.295
341.7000	-2.62801E+006	430.745
341.6000	-1.70785E+006	430.348
341.5000	-1.64842E+006	429.826
341.4000	-2.15197E+006	429.289
341.3000	-2.6812E+006	428.887
341.2000	-2.42717E+006	428.336
341.1000	-2.07954E+006	427.767
341.0000	-1.54383E+006	427.345
340.9000	-1.12838E+006	426.795
340.8000	-1.23844E+006	426.23
340.7000	-783014	425.788
340.6000	-281161	425.245
340.5000	303681	424.695
340.4000	1.02528E+006	424.3
340.3000	1.25188E+006	423.773
340.2000	1.46624E+006	423.239
340.1000	1.20105E+006	422.851
340.0000	805521	422.358
339.9000	-28466.7	421.863
339.8000	-1.22203E+006	421.482
339.7000	-2.06834E+006	421.007
339.6000	-3.46538E+006	420.523
339.5000	-4.24645E+006	420.187
339.4000	-5.08269E+006	419.727
339.3000	-5.78483E+006	419.238
339.2000	-5.79859E+006	418.725
339.1000	-5.57043E+006	418.266
339.0000	-5.11098E+006	417.792
338.9000	-4.22053E+006	417.248
338.8000	-3.31958E+006	416.746
338.7000	-2.70703E+006	416.235
338.6000	-2.24138E+006	415.688
338.5000	-2.02473E+006	415.209
338.4000	-1.57856E+006	414.854
338.3000	-1.59499E+006	414.402
338.2000	-1.146E+006	413.952
338.1000	-1.07956E+006	413.638
338.0000	-741867	413.228
337.9000	-717742	412.805
337.8000	-335861	412.511
337.7000	115857	412.122
337.6000	-68574.2	411.712
337.5000	-118901	411.397
337.4000	-455728	410.99
337.3000	-899543	410.566
337.2000	-1.13863E+006	410.09
337.1000	-965316	409.672
337.0000	-613516	409.252
336.9000	-395510	408.793
336.8000	-466992	408.39
336.7000	-703559	407.982
336.6000	-745416	407.537
336.5000	-270355	407.139
336.4000	245581	406.862
336.3000	364559	406.467
336.2000	52018.5	406.054
336.1000	-570521	405.744
336.0000	-867603	405.368
335.9000	-467132	404.98
335.8000	-400539	404.54
335.7000	-760943	404.138
335.6000	-1.33248E+006	403.73
335.5000	-1.34285E+006	403.314
335.4000	-1.37418E+006	402.957
335.3000	-1.26638E+006	402.602
335.2000	-685979	402.222
335.1000	-110922	401.885
335.0000	200185	401.666
334.9000	562305	401.354
334.8000	493750	401.02
334.7000	396231	400.659
334.6000	206239	400.339
334.5000	242284	400.013
334.4000	54711	399.621
334.3000	-380375	399.256
334.2000	-829808	398.878
334.1000	-1.48118E+006	398.457
334.0000	-1.65865E+006	398.091
333.9000	-2.08824E+006	397.819
333.8000	-2.09212E+006	397.484
333.7000	-2.4063E+006	397.138
333.6000	-2.93766E+006	396.76
333.5000	-3.05729E+006	396.438
333.4000	-2.84145E+006	396.114
333.3000	-2.65271E+006	395.778
333.2000	-2.4753E+006	395.489
333.1000	-2.20086E+006	395.195
333.0000	-2.26296E+006	394.866
332.9000	-1.8353E+006	394.572
332.8000	-1.13079E+006	394.241
332.7000	-782159	393.944
332.6000	-723997	393.638
332.5000	-585307	393.298
332.4000	-174442	393.003
332.3000	488766	392.707
332.2000	1.17036E+006	392.368
332.1000	1.24904E+006	392.053
332.0000	1.06112E+006	391.716
331.9000	626162	391.432
331.8000	561281	391.15
331.7000	339543	390.827
331.6000	-324492	390.528
331.5000	-818081	390.111
331.4000	-1.1749E+006	389.779
331.3000	-1.219E+006	389.489
331.2000	-1.07597E+006	389.171
331.1000	-1.05291E+006	388.883
331.0000	-1.15616E+006	388.587
330.9000	-1.54317E+006	388.28
330.8000	-1.43508E+006	388.015
330.7000	-1.23872E+006	387.722
330.6000	-1.45359E+006	387.463
330.5000	-1.63095E+006	387.204
330.4000	-2.12358E+006	386.912
330.3000	-2.40919E+006	386.658
330.2000	-2.20106E+006	386.3
330.1000	-1.77337E+006	386.011
330.0000	-1.04773E+006	385.755
329.9000	-817967	385.471
329.8000	-921285	385.216
329.7000	-955445	384.875
329.6000	-789327	384.616
329.5000	-469683	384.391
329.4000	-617700	384.101
329.3000	-913547	383.841
329.2000	-1.6127E+006	383.477
329.1000	-2.23239E+006	383.19
329.0000	-2.70664E+006	382.94
328.9000	-2.87853E+006	382.661
328.8000	-3.08373E+006	382.406
328.7000	-3.23919E+006	382.063
328.6000	-3.0921E+006	381.821
328.5000	-2.69235E+006	381.626
328.4000	-2.54071E+006	381.371
328.3000	-2.32021E+006	381.143
328.2000	-2.29497E+006	380.843
328.1000	-2.02659E+006	380.608
328.0000	-1.91301E+006	380.401
327.9000	-2.01794E+006	380.13
327.8000	-2.214E+006	379.882
327.7000	-2.18309E+006	379.616
327.6000	-2.09468E+006	379.443
327.5000	-1.79693E+006	379.313
327.4000	-1.58443E+006	379.054
327.3000	-1.24282E+006	378.812
327.2000	-1.41505E+006	378.521
327.1000	-1.33721E+006	378.317
327.0000	-1.06613E+006	378.158
326.9000	-1.09918E+006	377.887
326.8000	-993921	377.605
326.7000	-1.18441E+006	377.287
326.6000	-1.33722E+006	377.096
326.5000	-1.29682E+006	376.968
326.4000	-1.17009E+006	376.714
326.3000	-1.02876E+006	376.466
326.2000	-1.02796E+006	376.195
326.1000	-922836	376.014
326.0000	-928965	375.717
325.9000	-816339	375.438
325.8000	-644091	375.171
325.7000	-825606	374.918
325.6000	-1.30973E+006	374.774
325.5000	-1.6289E+006	374.48
325.4000	-1.61041E+006	374.194
325.3000	-1.77058E+006	373.906
325.2000	-2.07215E+006	373.732
325.1000	-2.19824E+006	373.619
325.0000	-2.17128E+006	373.344
324.9000	-1.88892E+006	373.055
324.8000	-1.57107E+006	372.75
324.7000	-1.51505E+006	372.593
324.6000	-1.44368E+006	372.515
324.5000	-1.58921E+006	372.25
324.4000	-1.3139E+006	371.984
324.3000	-1.22143E+006	371.735
324.2000	-1.49138E+006	371.596
324.1000	-1.57995E+006	371.335
324.0000	-1.70873E+006	371.069
323.9000	-1.623E+006	370.796
323.8000	-1.35114E+006	370.546
323.7000	-1.39392E+006	370.421
323.6000	-1.77446E+006	370.156
323.5000	-2.04179E+006	369.864
323.4000	-1.98283E+006	369.583
323.3000	-2.00761E+006	369.435
323.2000	-2.1779E+006	369.35
323.1000	-1.97458E+006	369.102
323.0000	-2.10244E+006	368.83
322.9000	-2.03939E+006	368.558
322.8000	-1.87506E+006	368.426
322.7000	-1.61502E+006	368.187
322.6000	-1.52323E+006	367.92
322.5000	-1.14191E+006	367.649
322.4000	-969639	367.372
322.3000	-1.13538E+006	367.199
322.2000	-892960	366.904
322.1000	-874452	366.581
322.0000	-1.01E+006	366.261
321.9000	-1.36421E+006	366.068
321.8000	-1.63507E+006	365.78
321.7000	-2.13203E+006	365.479
321.6000	-2.42384E+006	365.176
321.5000	-2.45232E+006	364.902
321.4000	-2.47373E+006	364.764
321.3000	-2.52124E+006	364.566
321.2000	-2.73019E+006	364.363
321.1000	-2.75755E+006	364.157
321.0000	-2.69424E+006	364.082
320.9000	-2.50588E+006	363.941
320.8000	-2.58668E+006	363.8
320.7000	-2.67894E+006	363.654
320.6000	-2.91914E+006	363.503
320.5000	-3.0286E+006	363.451
320.4000	-3.03208E+006	363.286
320.3000	-2.50184E+006	363.121
320.2000	-2.21405E+006	362.967
320.1000	-2.13775E+006	362.907
320.0000	-1.80642E+006	362.747
319.9000	-1.44493E+006	362.577
319.8000	-1.06648E+006	362.402
319.7000	-1.0823E+006	362.218
319.6000	-833039	362.011
319.5000	-743911	361.855
319.4000	-595897	361.68
319.3000	-719338	361.468
319.2000	-849014	361.356
319.1000	-1.04119E+006	361.154
319.0000	-1.25894E+006	360.943
318.9000	-1.57739E+006	360.724
318.8000	-1.90377E+006	360.601
318.7000	-2.14431E+006	360.374
318.6000	-2.31052E+006	360.14
318.5000	-2.35276E+006	359.944
318.4000	-2.40549E+006	359.751
318.3000	-2.3082E+006	359.535
318.2000	-2.06641E+006	359.372
318.1000	-1.77912E+006	359.209
318.0000	-1.49647E+006	359.032
317.9000	-1.28452E+006	358.962
317.8000	-1.32008E+006	358.839
317.7000	-1.27128E+006	358.692
317.6000	-1.0848E+006	358.508
317.5000	-982747	358.406
317.4000	-1.33774E+006	358.235
317.3000	-1.31594E+006	358.062
317.2000	-1.44461E+006	357.875
317.1000	-1.55491E+006	357.686
317.0000	-1.65439E+006	357.451
316.9000	-1.36077E+006	357.257
316.8000	-1.2894E+006	357.077
316.7000	-1.05736E+006	356.9
316.6000	-730364	356.725
316.5000	-567392	356.579
316.4000	-505297	356.415
316.3000	-275246	356.246
316.2000	-36055.6	356.086
316.1000	-354666	355.966
316.0000	-622820	355.848
315.9000	-1.00614E+006	355.687
315.8000	-1.44969E+006	355.579
315.7000	-1.80145E+006	355.404
315.6000	-2.12061E+006	355.253
315.5000	-2.22309E+006	355.081
315.4000	-2.61899E+006	354.966
315.3000	-2.47571E+006	354.77
315.2000	-2.2133E+006	354.565
315.1000	-1.9927E+006	354.379
315.0000	-1.95014E+006	354.2
314.9000	-1.76758E+006	354.027
314.8000	-1.37684E+006	353.885
314.7000	-1.38586E+006	353.729
314.6000	-1.37049E+006	353.576
314.5000	-1.57116E+006	353.43
314.4000	-1.92049E+006	353.32
314.3000	-1.8775E+006	353.185
314.2000	-1.71865E+006	353.056
314.1000	-1.58892E+006	352.877
314.0000	-1.91423E+006	352.714
313.9000	-1.8953E+006	352.549
313.8000	-1.50198E+006	352.395
313.7000	-1.1275E+006	352.179
313.6000	-1.09027E+006	351.977
313.5000	-1.36549E+006	351.786
313.4000	-1.65651E+006	351.603
313.3000	-1.844E+006	351.432
313.2000	-1.65195E+006	351.293
313.1000	-1.58407E+006	351.142
313.0000	-1.48849E+006	350.996
312.9000	-1.85213E+006	350.859
312.8000	-1.81106E+006	350.766
312.7000	-1.29625E+006	350.645
312.6000	-790510	350.523
312.5000	-620123	350.362
312.4000	-540358	350.216
312.3000	-823493	350.048
312.2000	-1.15646E+006	349.882
312.1000	-1.23118E+006	349.666
312.0000	-1.14905E+006	349.464
311.9000	-1.35246E+006	349.265
311.8000	-1.91629E+006	349.029
311.7000	-2.2148E+006	348.841
311.6000	-2.41752E+006	348.641
311.5000	-2.36638E+006	348.478
311.4000	-2.15379E+006	348.283
311.3000	-2.074E+006	348.152
311.2000	-2.29448E+006	348.018
311.1000	-2.45355E+006	347.906
311.0000	-2.2069E+006	347.789
310.9000	-1.99928E+006	347.69
310.8000	-1.9608E+006	347.585
310.7000	-1.86024E+006	347.494
310.6000	-1.7568E+006	347.367
310.5000	-2.01525E+006	347.258
310.4000	-2.11086E+006	347.155
310.3000	-1.95338E+006	347.065
310.2000	-1.88516E+006	346.981
310.1000	-2.01206E+006	346.911
310.0000	-1.85451E+006	346.83
309.9000	-1.88797E+006	346.76
309.8000	-2.20274E+006	346.699
309.7000	-2.18113E+006	346.613
309.6000	-2.01091E+006	346.541
309.5000	-1.9873E+006	346.43
309.4000	-1.98525E+006	346.339
309.3000	-1.88303E+006	346.205
309.2000	-1.92176E+006	346.094
309.1000	-1.93781E+006	345.927
309.0000	-1.95733E+006	345.782
308.9000	-1.79428E+006	345.651
308.8000	-1.55137E+006	345.536
308.7000	-1.41751E+006	345.43
308.6000	-1.41095E+006	345.338
308.5000	-1.90111E+006	345.229
308.4000	-1.82141E+006	345.118
308.3000	-1.61747E+006	345.055
308.2000	-1.70264E+006	344.949
308.1000	-1.8172E+006	344.867
308.0000	-2.00082E+006	344.762
307.9000	-1.95707E+006	344.672
307.8000	-1.98401E+006	344.53
307.7000	-1.66798E+006	344.424
307.6000	-1.47144E+006	344.304
307.5000	-1.68863E+006	344.139
307.4000	-1.68358E+006	344.02
307.3000	-1.52944E+006	343.908
307.2000	-1.37917E+006	343.821
307.1000	-1.37407E+006	343.691
307.0000	-1.22654E+006	343.602
306.9000	-1.18776E+006	343.513
306.8000	-1.17568E+006	343.456
306.7000	-1.29879E+006	343.391
306.6000	-1.3238E+006	343.305
306.5000	-1.38235E+006	343.228
306.4000	-1.57802E+006	343.103
306.3000	-1.80854E+006	343.015
306.2000	-1.92656E+006	342.898
306.1000	-1.85325E+006	342.795
306.0000	-1.76352E+006	342.652
305.9000	-1.85495E+006	342.548
305.8000	-1.66647E+006	342.471
305.7000	-1.74786E+006	342.356
305.6000	-1.61367E+006	342.276
305.5000	-1.12602E+006	342.198
305.4000	-1.07748E+006	342.145
305.3000	-1.1711E+006	342.051
305.2000	-1.57191E+006	341.982
305.1000	-1.62922E+006	341.899
305.0000	-1.86509E+006	341.774
304.9000	-2.0871E+006	341.693
304.8000	-2.11975E+006	341.593
304.7000	-2.24384E+006	341.501
304.6000	-2.31005E+006	341.375
304.5000	-2.2466E+006	341.273
304.4000	-2.09163E+006	341.188
304.3000	-2.10301E+006	341.077
304.2000	-2.01956E+006	341.015
304.1000	-1.58607E+006	340.957
304.0000	-1.34702E+006	340.92
303.9000	-1.38999E+006	340.833
303.8000	-1.56624E+006	340.749
303.7000	-1.82836E+006	340.693
303.6000	-2.00927E+006	340.592
303.5000	-1.78698E+006	340.526
303.4000	-1.83434E+006	340.437
303.3000	-2.15749E+006	340.32
303.2000	-2.50972E+006	340.208
303.1000	-2.33719E+006	340.121
303.0000	-2.28142E+006	340.071
302.9000	-2.36534E+006	339.982
302.8000	-2.22121E+006	339.907
302.7000	-2.50258E+006	339.846
302.6000	-2.29879E+006	339.762
302.5000	-1.8904E+006	339.717
302.4000	-1.59984E+006	339.66
302.3000	-1.7432E+006	339.564
302.2000	-2.1391E+006	339.472
302.1000	-2.26533E+006	339.385
302.0000	-2.3573E+006	339.331
301.9000	-2.28242E+006	339.249
301.8000	-2.3974E+006	339.175
301.7000	-2.61901E+006	339.114
301.6000	-2.90243E+006	339.026
301.5000	-3.30735E+006	338.98
301.4000	-3.39642E+006	338.927
301.3000	-3.23902E+006	338.85
301.2000	-3.21143E+006	338.778
301.1000	-3.30244E+006	338.714
301.0000	-3.25301E+006	338.681
300.9000	-3.31154E+006	338.609
300.8000	-3.18748E+006	338.538
300.7000	-3.23026E+006	338.478
300.6000	-2.9284E+006	338.404
300.5000	-2.78748E+006	338.344
300.4000	-2.54623E+006	338.3
300.3000	-2.43218E+006	338.227
300.2000	-2.22952E+006	338.158
300.1000	-1.99799E+006	338.102
300.0000	-1.92188E+006	338.038
299.9000	-1.7824E+006	337.986
299.8000	-1.59796E+006	337.935
299.7000	-1.79676E+006	337.871
299.6000	-1.83503E+006	337.818
299.5000	-1.96846E+006	337.756
299.4000	-2.1451E+006	337.707
299.3000	-2.41659E+006	337.64
299.2000	-2.42506E+006	337.589
299.1000	-2.60993E+006	337.549
299.0000	-2.49233E+006	337.488
298.9000	-2.45863E+006	337.439
298.8000	-2.57071E+006	337.398
298.7000	-2.84038E+006	337.339
298.6000	-2.90863E+006	337.295
298.5000	-2.77765E+006	337.244
298.4000	-2.74679E+006	337.182
298.3000	-2.54848E+006	337.129
298.2000	-2.60761E+006	337.067
298.1000	-2.46078E+006	337.007
298.0000	-1.97305E+006	336.958
297.9000	-1.76247E+006	336.91
297.8000	-1.61266E+006	336.841
297.7000	-1.6578E+006	336.786
297.6000	-1.78849E+006	336.744
297.5000	-1.83796E+006	336.681
297.4000	-1.86028E+006	336.637
297.3000	-1.87973E+006	336.598
297.2000	-2.1822E+006	336.532
297.1000	-2.40069E+006	336.482
297.0000	-2.39917E+006	336.437
296.9000	-2.34637E+006	336.373
296.8000	-2.15714E+006	336.324
296.7000	-2.19394E+006	336.281
296.6000	-2.30496E+006	336.248
296.5000	-2.34218E+006	336.205
296.4000	-2.44833E+006	336.167
296.3000	-2.38559E+006	336.141
296.2000	-2.14474E+006	336.103
296.1000	-2.01636E+006	336.07
296.0000	-1.98417E+006	336.044
295.9000	-1.83064E+006	336.001
295.8000	-1.82521E+006	335.936
295.7000	-1.72478E+006	335.893
295.6000	-1.81797E+006	335.848
295.5000	-2.01412E+006	335.783
295.4000	-2.23331E+006	335.711
295.3000	-2.34476E+006	335.668
295.2000	-2.51187E+006	335.61
295.1000	-2.81351E+006	335.542
295.0000	-2.94309E+006	335.506
294.9000	-3.19585E+006	335.456
294.8000	-3.20776E+006	335.388
294.7000	-2.99095E+006	335.352
294.6000	-2.82729E+006	335.319
294.5000	-2.89406E+006	335.268
294.4000	-2.86019E+006	335.231
294.3000	-2.59642E+006	335.207
294.2000	-2.36424E+006	335.16
294.1000	-2.26396E+006	335.126
294.0000	-2.07849E+006	335.105
293.9000	-2.0851E+006	335.06
293.8000	-2.32257E+006	335.028
293.7000	-2.29553E+006	335.005
293.6000	-2.3422E+006	334.955
293.5000	-2.58469E+006	334.892
293.4000	-2.59069E+006	334.862
293.3000	-2.53486E+006	334.816
293.2000	-2.58804E+006	334.761
293.1000	-2.65209E+006	334.737
293.0000	-2.66926E+006	334.691
292.9000	-2.56706E+006	334.64
292.8000	-2.68185E+006	334.616
292.7000	-2.5438E+006	334.593
292.6000	-2.61865E+006	334.554
292.5000	-2.63963E+006	334.501
292.4000	-2.70679E+006	334.471
292.3000	-2.58305E+006	334.425
292.2000	-2.33401E+006	334.378
292.1000	-2.44184E+006	334.353
292.0000	-2.53102E+006	334.31
291.9000	-2.76884E+006	334.253
291.8000	-2.69706E+006	334.207
291.7000	-2.59481E+006	334.19
291.6000	-2.3837E+006	334.15
291.5000	-2.33793E+006	334.107
291.4000	-2.58229E+006	334.086
291.3000	-2.80872E+006	334.033
291.2000	-2.85107E+006	333.968
291.1000	-2.87289E+006	333.904
291.0000	-3.08173E+006	333.857
290.9000	-3.17325E+006	333.787
290.8000	-3.31031E+006	333.695
290.7000	-3.22006E+006	333.597
290.6000	-2.97501E+006	333.488
290.5000	-2.57502E+006	333.36
290.4000	-2.28815E+006	333.228
290.3000	-2.17992E+006	333.112
290.2000	-2.03736E+006	332.971
290.1000	-1.9704E+006	332.819
290.0000	-2.01957E+006	332.681
289.9000	-2.36508E+006	332.584
289.8000	-2.7277E+006	332.494
289.7000	-3.1611E+006	332.429
289.6000	-3.35866E+006	332.401
289.5000	-3.2663E+006	332.409
289.4000	-3.08603E+006	332.449
289.3000	-3.0339E+006	332.518
289.2000	-2.988E+006	332.608
289.1000	-2.68481E+006	332.719
289.0000	-2.25184E+006	332.824
288.9000	-1.94481E+006	332.927
288.8000	-1.75256E+006	333.022
288.7000	-1.68223E+006	333.107
288.6000	-1.7841E+006	333.168
288.5000	-1.8392E+006	333.214
288.4000	-1.8434E+006	333.242
288.3000	-1.93486E+006	333.257
288.2000	-2.32436E+006	333.252
288.1000	-2.39254E+006	333.243
288.0000	-2.05844E+006	333.225
287.9000	-2.16981E+006	333.191
287.8000	-2.11529E+006	333.172
287.7000	-1.93168E+006	333.146
287.6000	-1.8656E+006	333.123
287.5000	-1.75126E+006	333.09
287.4000	-1.59763E+006	333.075
287.3000	-1.62775E+006	333.06
287.2000	-1.95823E+006	333.041
287.1000	-2.12964E+006	333.024
287.0000	-1.96455E+006	332.985
286.9000	-1.91529E+006	332.962
286.8000	-1.87728E+006	332.948
286.7000	-1.83191E+006	332.931
286.6000	-2.15961E+006	332.899
286.5000	-2.18606E+006	332.887
286.4000	-1.86005E+006	332.879
286.3000	-1.47153E+006	332.879
286.2000	-1.18766E+006	332.876
286.1000	-1.17791E+006	332.866
286.0000	-1.32461E+006	332.864
285.9000	-1.44765E+006	332.855
285.8000	-1.49089E+006	332.852
285.7000	-1.53525E+006	332.823
285.6000	-1.82625E+006	332.795
285.5000	-2.48233E+006	332.787
285.4000	-3.06483E+006	332.78
285.3000	-3.22091E+006	332.783
285.2000	-3.291E+006	332.759
285.1000	-3.4983E+006	332.745
285.0000	-3.44177E+006	332.754
284.9000	-3.33985E+006	332.755
284.8000	-3.19759E+006	332.759
284.7000	-2.87679E+006	332.739
284.6000	-2.66749E+006	332.724
284.5000	-2.61055E+006	332.729
284.4000	-2.66652E+006	332.734
284.3000	-2.52484E+006	332.745
284.2000	-2.12792E+006	332.732
284.1000	-1.92205E+006	332.725
284.0000	-1.95217E+006	332.71
283.9000	-2.16986E+006	332.717
283.8000	-2.18103E+006	332.732
283.7000	-2.296E+006	332.72
283.6000	-2.52746E+006	332.709
283.5000	-2.68886E+006	332.695
283.4000	-2.80175E+006	332.686
283.3000	-3.03954E+006	332.697
283.2000	-3.11492E+006	332.714
283.1000	-3.02447E+006	332.722
283.0000	-2.96151E+006	332.713
282.9000	-2.90838E+006	332.706
282.8000	-2.79742E+006	332.702
282.7000	-2.58906E+006	332.719
282.6000	-2.63824E+006	332.74
282.5000	-2.59487E+006	332.747
282.4000	-2.3488E+006	332.745
282.3000	-2.10188E+006	332.745
282.2000	-1.98835E+006	332.746
282.1000	-1.73782E+006	332.771
282.0000	-1.56988E+006	332.792
281.9000	-1.46523E+006	332.798
281.8000	-1.42784E+006	332.796
281.7000	-1.61836E+006	332.79
281.6000	-1.67257E+006	332.787
281.5000	-1.78665E+006	332.783
281.4000	-1.76346E+006	332.801
281.3000	-1.66439E+006	332.808
281.2000	-1.67975E+006	332.806
281.1000	-1.44921E+006	332.807
281.0000	-1.37701E+006	332.804
280.9000	-1.2929E+006	332.798
280.8000	-1.0932E+006	332.793
280.7000	-1.17647E+006	332.791
280.6000	-1.37021E+006	332.793
280.5000	-1.71138E+006	332.783
280.4000	-1.89384E+006	332.775
280.3000	-2.15969E+006	332.763
280.2000	-2.62005E+006	332.751
280.1000	-2.76156E+006	332.743
280.0000	-2.87036E+006	332.739
279.9000	-2.98237E+006	332.734
279.8000	-2.96073E+006	332.715
279.7000	-2.87569E+006	332.711
279.6000	-2.92368E+006	332.707
279.5000	-2.83816E+006	332.711
279.4000	-2.7318E+006	332.717
279.3000	-2.56649E+006	332.721
279.2000	-2.57199E+006	332.726
279.1000	-2.48088E+006	332.732
279.0000	-2.68592E+006	332.737
278.9000	-2.86574E+006	332.732
278.8000	-2.92994E+006	332.739
278.7000	-2.97687E+006	332.751
278.6000	-3.07838E+006	332.761
278.5000	-3.15998E+006	332.776
278.4000	-3.15912E+006	332.79
278.3000	-3.33741E+006	332.803
278.2000	-3.30066E+006	332.818
278.1000	-2.94812E+006	332.835
278.0000	-2.73769E+006	332.841
277.9000	-2.62505E+006	332.838
277.8000	-2.49006E+006	332.837
277.7000	-2.1963E+006	332.842
277.6000	-2.14015E+006	332.862
277.5000	-2.00256E+006	332.879
277.4000	-1.81661E+006	332.897
277.3000	-1.7925E+006	332.917
277.2000	-1.7319E+006	332.939
277.1000	-1.71736E+006	332.958
277.0000	-1.83988E+006	332.973
276.9000	-1.80662E+006	332.985
276.8000	-1.77657E+006	332.984
276.7000	-1.69833E+006	332.979
276.6000	-1.67835E+006	332.977
276.5000	-1.79275E+006	332.977
276.4000	-1.88963E+006	332.973
276.3000	-1.95666E+006	332.971
276.2000	-1.85005E+006	332.971
276.1000	-1.94048E+006	332.974
276.0000	-2.06267E+006	332.996
275.9000	-2.00666E+006	333.02
275.8000	-2.05023E+006	333.045
275.7000	-1.92713E+006	333.07
275.6000	-1.78882E+006	333.1
275.5000	-1.82873E+006	333.126
275.4000	-1.83316E+006	333.159
275.3000	-1.84379E+006	333.19
275.2000	-1.66521E+006	333.205
275.1000	-1.63545E+006	333.214
275.0000	-1.73489E+006	333.218
274.9000	-1.81209E+006	333.222
274.8000	-2.15706E+006	333.227
274.7000	-2.19454E+006	333.234
274.6000	-2.25598E+006	333.24
274.5000	-2.46082E+006	333.246
274.4000	-2.81999E+006	333.253
274.3000	-2.95525E+006	333.265
274.2000	-2.83741E+006	333.279
274.1000	-2.65717E+006	333.295
274.0000	-2.58849E+006	333.308
273.9000	-2.29522E+006	333.327
273.8000	-1.97706E+006	333.349
273.7000	-1.58832E+006	333.37
273.6000	-1.06425E+006	333.389
273.5000	-952088	333.406
273.4000	-852713	333.421
273.3000	-703718	333.437
273.2000	-500278	333.448
273.1000	-672559	333.456
273.0000	-852665	333.459
272.9000	-1.09383E+006	333.465
272.8000	-1.41849E+006	333.474
272.7000	-1.43122E+006	333.487
272.6000	-1.46085E+006	333.503
272.5000	-1.57595E+006	333.528
272.4000	-1.64874E+006	333.555
272.3000	-1.43917E+006	333.585
272.2000	-1.11838E+006	333.619
272.1000	-987832	333.648
272.0000	-923970	333.675
271.9000	-532161	333.702
271.8000	-441207	333.719
271.7000	-489288	333.729
271.6000	-524993	333.735
271.5000	-671706	333.742
271.4000	-853165	333.746
271.3000	-1.12375E+006	333.744
271.2000	-1.09094E+006	333.749
271.1000	-1.18298E+006	333.755
271.0000	-1.40934E+006	333.757
270.9000	-1.26829E+006	333.748
270.8000	-1.22499E+006	333.74
270.7000	-1.05614E+006	333.736
270.6000	-1.15124E+006	333.728
270.5000	-814559	333.723
270.4000	-754457	333.717
270.3000	-921018	333.701
270.2000	-754060	333.695
270.1000	-788556	333.704
270.0000	-870376	333.72
269.9000	-987969	333.734
269.8000	-1.00624E+006	333.751
269.7000	-1.08145E+006	333.768
269.6000	-1.16404E+006	333.794
269.5000	-1.16004E+006	333.823
269.4000	-1.26116E+006	333.842
269.3000	-1.415E+006	333.869
269.2000	-1.43583E+006	333.894
269.1000	-1.58922E+006	333.917
269.0000	-1.75209E+006	333.94
268.9000	-1.77564E+006	333.979
268.8000	-1.8122E+006	334.012
268.7000	-1.87598E+006	334.049
268.6000	-1.98309E+006	334.088
268.5000	-1.89315E+006	334.13
268.4000	-1.96507E+006	334.172
268.3000	-1.89305E+006	334.21
268.2000	-1.77967E+006	334.257
268.1000	-1.84419E+006	334.295
268.0000	-1.76375E+006	334.343
267.9000	-1.74092E+006	334.384
267.8000	-1.73616E+006	334.432
267.7000	-1.82222E+006	334.475
267.6000	-1.78795E+006	334.524
267.5000	-1.86655E+006	334.572
267.4000	-1.98663E+006	334.605
267.3000	-2.03231E+006	334.642
267.2000	-2.1515E+006	334.67
267.1000	-2.24712E+006	334.711
267.0000	-2.33915E+006	334.754
266.9000	-2.48054E+006	334.802
266.8000	-2.52523E+006	334.842
266.7000	-2.70781E+006	334.871
266.6000	-3.00716E+006	334.918
266.5000	-2.86656E+006	334.975
266.4000	-2.62188E+006	335.036
266.3000	-2.56014E+006	335.092
266.2000	-2.55747E+006	335.146
266.1000	-2.59309E+006	335.201
266.0000	-2.58503E+006	335.254
265.9000	-2.46998E+006	335.32
265.8000	-1.9356E+006	335.39
265.7000	-1.66553E+006	335.45
265.6000	-1.91466E+006	335.505
265.5000	-2.07772E+006	335.562
265.4000	-2.01865E+006	335.606
265.3000	-1.91403E+006	335.648
265.2000	-1.85369E+006	335.699
265.1000	-1.70045E+006	335.754
265.0000	-1.61684E+006	335.816
264.9000	-1.54315E+006	335.888
264.8000	-1.35442E+006	335.95
264.7000	-1.06462E+006	336.017
264.6000	-1.0647E+006	336.09
264.5000	-1.10477E+006	336.174
264.4000	-1.07073E+006	336.261
264.3000	-1.08523E+006	336.33
264.2000	-1.45565E+006	336.394
264.1000	-1.69082E+006	336.458
264.0000	-1.80375E+006	336.531
263.9000	-1.9353E+006	336.606
263.8000	-1.8396E+006	336.671
263.7000	-1.70858E+006	336.732
263.6000	-1.63471E+006	336.797
263.5000	-1.48104E+006	336.882
263.4000	-1.15787E+006	336.977
263.3000	-1.02839E+006	337.048
263.2000	-1.0222E+006	337.117
263.1000	-922437	337.187
263.0000	-1.08457E+006	337.263
262.9000	-1.16916E+006	337.33
262.8000	-987693	337.395
262.7000	-1.03021E+006	337.455
262.6000	-1.30043E+006	337.514
262.5000	-1.40217E+006	337.589
262.4000	-1.55501E+006	337.653
262.3000	-1.59197E+006	337.719
262.2000	-1.41279E+006	337.786
262.1000	-1.41967E+006	337.864
262.0000	-1.40096E+006	337.933
261.9000	-1.4214E+006	338
261.8000	-1.38378E+006	338.068
261.7000	-1.42442E+006	338.123
261.6000	-1.45262E+006	338.189
261.5000	-1.44929E+006	338.266
261.4000	-1.59018E+006	338.344
261.3000	-1.80503E+006	338.416
261.2000	-1.98131E+006	338.502
261.1000	-2.15682E+006	338.591
261.0000	-2.18565E+006	338.684
260.9000	-2.13501E+006	338.766
260.8000	-1.97831E+006	338.851
260.7000	-1.98814E+006	338.933
260.6000	-1.95937E+006	339.007
260.5000	-1.77313E+006	339.087
260.4000	-1.58854E+006	339.173
260.3000	-1.59745E+006	339.263
260.2000	-1.86455E+006	339.339
260.1000	-1.88977E+006	339.424
260.0000	-1.83007E+006	339.523
259.9000	-2.01462E+006	339.614
259.8000	-2.16293E+006	339.717
259.7000	-2.55376E+006	339.818
259.6000	-2.67134E+006	339.902
259.5000	-2.75785E+006	339.978
259.4000	-2.55444E+006	340.067
259.3000	-2.24744E+006	340.154
259.2000	-2.17666E+006	340.245
259.1000	-1.89404E+006	340.34
259.0000	-1.44433E+006	340.42
258.9000	-778373	340.5
258.8000	-291097	340.589
258.7000	-355233	340.663
258.6000	-458543	340.738
258.5000	-722052	340.819
258.4000	-964504	340.881
258.3000	-1.21757E+006	340.945
258.2000	-1.50783E+006	341.026
258.1000	-1.49399E+006	341.107
258.0000	-1.35045E+006	341.192
257.9000	-1.1926E+006	341.296
257.8000	-833463	341.398
257.7000	-742478	341.496
257.6000	-628718	341.607
257.5000	-497853	341.707
257.4000	-311251	341.807
257.3000	-632385	341.898
257.2000	-951113	341.994
257.1000	-1.08133E+006	342.093
257.0000	-1.19799E+006	342.19
256.9000	-1.24374E+006	342.289
256.8000	-1.46547E+006	342.371
256.7000	-1.53812E+006	342.466
256.6000	-1.53615E+006	342.562
256.5000	-1.63758E+006	342.645
256.4000	-1.76036E+006	342.728
256.3000	-1.99391E+006	342.798
256.2000	-1.9111E+006	342.871
256.1000	-1.58303E+006	342.955
256.0000	-1.42637E+006	343.044
255.9000	-1.41955E+006	343.133
255.8000	-1.4424E+006	343.205
255.7000	-1.34665E+006	343.299
255.6000	-1.1941E+006	343.397
255.5000	-972730	343.484
255.4000	-865439	343.574
255.3000	-1.04562E+006	343.651
255.2000	-817419	343.733
255.1000	-492677	343.811
255.0000	-167943	343.904
254.9000	-37097.4	343.99
254.8000	325075	344.073
254.7000	225080	344.165
254.6000	33302.5	344.252
254.5000	875.489	344.344
254.4000	-30553.1	344.428
254.3000	71033.5	344.517
254.2000	25887.1	344.597
254.1000	-128271	344.685
254.0000	-397808	344.762
253.9000	-356903	344.842
253.8000	-242827	344.922
253.7000	-73076.5	345.011
253.6000	-47369.4	345.098
253.5000	-63558	345.195
253.4000	-188220	345.278
253.3000	-136249	345.361
253.2000	-284537	345.439
253.1000	-567468	345.528
253.0000	-519087	345.622
252.9000	-583290	345.715
252.8000	-552565	345.796
252.7000	-397132	345.878
252.6000	-226481	345.966
252.5000	-66425.1	346.059
252.4000	-84294	346.14
252.3000	216704	346.227
252.2000	363581	346.305
252.1000	223465	346.378
252.0000	-57130.4	346.452
251.9000	-270998	346.524
251.8000	-660725	346.601
251.7000	-819992	346.672
251.6000	-720534	346.752
251.5000	-656586	346.828
251.4000	-870702	346.906
251.3000	-702052	346.994
251.2000	-612864	347.086
251.1000	-419390	347.19
251.0000	-342033	347.284
250.9000	-388309	347.384
250.8000	-489619	347.485
250.7000	-537652	347.598
250.6000	-614552	347.707
250.5000	-870951	347.804
250.4000	-916267	347.903
250.3000	-858765	347.995
250.2000	-762054	348.093
250.1000	-517080	348.179
250.0000	-349225	348.264
249.9000	-520944	348.357
249.8000	-559392	348.444
249.7000	-605197	348.544
249.6000	-705076	348.634
249.5000	-923490	348.723
249.4000	-1.19071E+006	348.818
249.3000	-1.30841E+006	348.919
249.2000	-1.50075E+006	349.02
249.1000	-1.6306E+006	349.115
249.0000	-1.41708E+006	349.202
248.9000	-1.22026E+006	349.28
248.8000	-929008	349.374
248.7000	-884460	349.465
248.6000	-1.20657E+006	349.546
248.5000	-1.47301E+006	349.636
248.4000	-1.61977E+006	349.734
248.3000	-1.49053E+006	349.835
248.2000	-1.43256E+006	349.947
248.1000	-1.3121E+006	350.065
248.0000	-1.06036E+006	350.172
247.9000	-659117	350.284
247.8000	-402418	350.392
247.7000	-154129	350.494
247.6000	-203069	350.596
247.5000	-210645	350.692
247.4000	-576271	350.765
247.3000	-844343	350.827
247.2000	-1.18396E+006	350.899
247.1000	-1.68556E+006	350.97
247.0000	-1.92828E+006	351.043
246.9000	-2.09723E+006	351.122
246.8000	-2.26708E+006	351.189
246.7000	-2.36117E+006	351.256
246.6000	-2.38811E+006	351.336
246.5000	-2.05861E+006	351.438
246.4000	-1.73828E+006	351.538
246.3000	-1.46438E+006	351.638
246.2000	-958858	351.738
246.1000	-461014	351.842
246.0000	84497.9	351.943
245.9000	772595	352.049
245.8000	1.37979E+006	352.157
245.7000	1.53591E+006	352.264
245.6000	1.40466E+006	352.37
245.5000	1.37516E+006	352.47
245.4000	1.00318E+006	352.567
245.3000	749278	352.66
245.2000	500523	352.768
245.1000	349522	352.88
245.0000	12936.1	352.988
244.9000	-252144	353.084
244.8000	-180653	353.179
244.7000	-312044	353.281
244.6000	-178990	353.388
244.5000	-292545	353.502
244.4000	-431972	353.608
244.3000	-554452	353.702
244.2000	-576209	353.795
244.1000	-439004	353.902
244.0000	-699529	354.007
243.9000	-1.09327E+006	354.1
243.8000	-1.22696E+006	354.195
243.7000	-1.05762E+006	354.289
243.6000	-1.056E+006	354.376
243.5000	-1.23854E+006	354.473
243.4000	-1.5782E+006	354.59
243.3000	-1.72973E+006	354.707
243.2000	-1.59581E+006	354.819
243.1000	-1.23343E+006	354.933
243.0000	-1.10174E+006	355.046
242.9000	-934732	355.163
242.8000	-1.10088E+006	355.283
242.7000	-1.29923E+006	355.401
242.6000	-1.32712E+006	355.509
242.5000	-1.57717E+006	355.605
242.4000	-1.99121E+006	355.71
242.3000	-2.27956E+006	355.825
242.2000	-2.56471E+006	355.942
242.1000	-2.88533E+006	356.056
242.0000	-2.88852E+006	356.169
241.9000	-2.90377E+006	356.285
241.8000	-2.66633E+006	356.411
241.7000	-2.4617E+006	356.546
241.6000	-2.3223E+006	356.676
241.5000	-2.29603E+006	356.799
241.4000	-1.89596E+006	356.927
241.3000	-1.86801E+006	357.048
241.2000	-1.86773E+006	357.171
241.1000	-1.72453E+006	357.298
241.0000	-1.89405E+006	357.419
240.9000	-2.12493E+006	357.528
240.8000	-2.28895E+006	357.637
240.7000	-2.19818E+006	357.761
240.6000	-2.4627E+006	357.886
240.5000	-2.74718E+006	358.016
240.4000	-2.55566E+006	358.156
240.3000	-2.36373E+006	358.296
240.2000	-2.13166E+006	358.438
240.1000	-1.65722E+006	358.594
240.0000	-1.27312E+006	358.748
239.9000	-1.16151E+006	358.895
239.8000	-1.30691E+006	359.036
239.7000	-1.38692E+006	359.175
239.6000	-1.34367E+006	359.312
239.5000	-1.38679E+006	359.456
239.4000	-1.60001E+006	359.602
239.3000	-1.72362E+006	359.743
239.2000	-1.67581E+006	359.891
239.1000	-1.66005E+006	360.048
239.0000	-1.25659E+006	360.211
238.9000	-994595	360.372
238.8000	-854752	360.539
238.7000	-951409	360.709
238.6000	-960104	360.863
238.5000	-1.00884E+006	361.017
238.4000	-1.086E+006	361.173
238.3000	-984135	361.329
238.2000	-941843	361.484
238.1000	-930005	361.64
238.0000	-869541	361.797
237.9000	-918531	361.948
237.8000	-1.0261E+006	362.095
237.7000	-783510	362.255
237.6000	-817135	362.418
237.5000	-1.07816E+006	362.588
237.4000	-1.33718E+006	362.756
237.3000	-1.63611E+006	362.925
237.2000	-1.87121E+006	363.096
237.1000	-1.83703E+006	363.264
237.0000	-1.45918E+006	363.442
236.9000	-1.34376E+006	363.621
236.8000	-1.00331E+006	363.801
236.7000	-875590	363.971
236.6000	-1.1267E+006	364.126
236.5000	-1.21129E+006	364.292
236.4000	-1.08718E+006	364.467
236.3000	-1.22599E+006	364.648
236.2000	-1.54479E+006	364.831
236.1000	-1.83175E+006	365.004
236.0000	-2.1298E+006	365.174
235.9000	-2.62986E+006	365.341
235.8000	-2.71641E+006	365.523
235.7000	-2.53841E+006	365.704
235.6000	-2.36305E+006	365.886
235.5000	-2.1619E+006	366.069
235.4000	-2.07121E+006	366.252
235.3000	-1.95498E+006	366.437
235.2000	-2.29557E+006	366.62
235.1000	-2.42293E+006	366.806
235.0000	-2.35853E+006	366.995
234.9000	-2.34478E+006	367.183
234.8000	-2.35487E+006	367.365
234.7000	-2.62766E+006	367.542
234.6000	-3.08634E+006	367.715
234.5000	-3.16228E+006	367.897
234.4000	-3.06566E+006	368.085
234.3000	-2.7956E+006	368.271
234.2000	-2.59176E+006	368.454
234.1000	-2.20484E+006	368.639
234.0000	-2.60065E+006	368.815
233.9000	-2.8606E+006	369.001
233.8000	-2.68636E+006	369.197
233.7000	-2.69381E+006	369.386
233.6000	-2.83886E+006	369.576
233.5000	-2.80667E+006	369.774
233.4000	-2.93257E+006	369.971
233.3000	-3.11936E+006	370.174
233.2000	-2.9754E+006	370.391
233.1000	-2.34767E+006	370.601
233.0000	-2.05548E+006	370.802
232.9000	-2.03499E+006	371
232.8000	-2.0752E+006	371.198
232.7000	-2.21507E+006	371.397
232.6000	-2.53041E+006	371.591
232.5000	-2.55142E+006	371.79
232.4000	-2.67054E+006	371.979
232.3000	-3.09805E+006	372.176
232.2000	-3.52783E+006	372.374
232.1000	-3.85828E+006	372.578
232.0000	-3.97142E+006	372.779
231.9000	-4.28017E+006	372.972
231.8000	-4.35748E+006	373.162
231.7000	-4.4396E+006	373.357
231.6000	-4.43421E+006	373.559
231.5000	-4.56505E+006	373.749
231.4000	-4.77118E+006	373.939
231.3000	-4.80772E+006	374.13
231.2000	-4.38585E+006	374.328
231.1000	-4.11748E+006	374.528
231.0000	-3.67308E+006	374.73
230.9000	-3.61948E+006	374.939
230.8000	-3.9743E+006	375.133
230.7000	-3.82038E+006	375.342
230.6000	-3.43299E+006	375.554
230.5000	-3.41488E+006	375.769
230.4000	-3.63022E+006	375.982
230.3000	-3.76742E+006	376.201
230.2000	-3.71896E+006	376.42
230.1000	-3.93359E+006	376.637
230.0000	-3.61548E+006	376.853
229.9000	-3.51573E+006	377.06
229.8000	-4.19135E+006	377.26
229.7000	-4.18841E+006	377.453
229.6000	-4.07818E+006	377.642
229.5000	-3.80935E+006	377.826
229.4000	-3.90849E+006	378.007
229.3000	-4.13933E+006	378.186
229.2000	-4.01006E+006	378.365
229.1000	-4.04671E+006	378.544
229.0000	-3.50884E+006	378.731
228.9000	-3.22195E+006	378.922
228.8000	-3.30399E+006	379.113
228.7000	-3.68001E+006	379.316
228.6000	-3.95793E+006	379.525
228.5000	-4.17861E+006	379.739
228.4000	-4.36818E+006	379.97
228.3000	-4.47659E+006	380.213
228.2000	-4.81979E+006	380.455
228.1000	-4.74783E+006	380.707
228.0000	-4.69578E+006	380.959
227.9000	-4.27234E+006	381.213
227.8000	-4.00602E+006	381.46
227.7000	-4.0868E+006	381.706
227.6000	-4.12678E+006	381.946
227.5000	-4.12239E+006	382.177
227.4000	-3.9264E+006	382.408
227.3000	-3.86741E+006	382.639
227.2000	-4.2005E+006	382.863
227.1000	-4.40946E+006	383.088
227.0000	-4.90964E+006	383.306
226.9000	-4.90926E+006	383.523
226.8000	-4.67197E+006	383.744
226.7000	-4.99078E+006	383.962
226.6000	-5.02324E+006	384.184
226.5000	-5.26099E+006	384.399
226.4000	-5.36357E+006	384.608
226.3000	-5.52148E+006	384.814
226.2000	-5.37837E+006	385.033
226.1000	-5.1251E+006	385.257
226.0000	-5.12216E+006	385.475
225.9000	-5.0711E+006	385.689
225.8000	-4.83624E+006	385.9
225.7000	-4.85535E+006	386.113
225.6000	-4.79125E+006	386.333
225.5000	-4.58068E+006	386.558
225.4000	-4.27099E+006	386.781
225.3000	-4.11135E+006	387.005
225.2000	-4.18049E+006	387.227
225.1000	-4.36839E+006	387.45
225.0000	-4.69417E+006	387.673
224.9000	-5.24834E+006	387.889
224.8000	-5.64537E+006	388.105
224.7000	-5.9859E+006	388.322
224.6000	-6.84451E+006	388.534
224.5000	-7.62079E+006	388.74
224.4000	-8.09277E+006	388.95
224.3000	-8.04758E+006	389.169
224.2000	-7.66819E+006	389.391
224.1000	-7.436E+006	389.616
224.0000	-7.29143E+006	389.842
223.9000	-7.64852E+006	390.064
223.8000	-7.55806E+006	390.292
223.7000	-6.91572E+006	390.527
223.6000	-6.445E+006	390.763
223.5000	-6.15221E+006	390.994
223.4000	-6.63386E+006	391.215
223.3000	-6.94163E+006	391.431
223.2000	-6.73799E+006	391.65
223.1000	-6.16947E+006	391.872
223.0000	-5.32962E+006	392.099
222.9000	-5.26786E+006	392.315
222.8000	-5.51441E+006	392.525
222.7000	-5.70247E+006	392.737
222.6000	-6.109E+006	392.949
222.5000	-5.96727E+006	393.167
222.4000	-5.61538E+006	393.387
222.3000	-5.28082E+006	393.605
222.2000	-5.38233E+006	393.82
222.1000	-5.54624E+006	394.033
222.0000	-5.86339E+006	394.244
221.9000	-5.72424E+006	394.453
221.8000	-5.18462E+006	394.666
221.7000	-4.76877E+006	394.882
221.6000	-4.88322E+006	395.099
221.5000	-5.47028E+006	395.313
221.4000	-5.59387E+006	395.525
221.3000	-5.96295E+006	395.738
221.2000	-6.14604E+006	395.951
221.1000	-6.30542E+006	396.17
221.0000	-6.32244E+006	396.39
220.9000	-5.90761E+006	396.611
220.8000	-5.93789E+006	396.828
220.7000	-5.93248E+006	397.041
220.6000	-5.72053E+006	397.257
220.5000	-5.30104E+006	397.482
220.4000	-4.80139E+006	397.701
220.3000	-4.45404E+006	397.923
220.2000	-4.46944E+006	398.146
220.1000	-4.69783E+006	398.364
220.0000	-5.37222E+006	398.58
219.9000	-5.2549E+006	398.806
219.8000	-5.48568E+006	399.028
219.7000	-5.93848E+006	399.245
219.6000	-6.00941E+006	399.466
219.5000	-6.13623E+006	399.691
219.4000	-6.60062E+006	399.914
219.3000	-6.938E+006	400.134
219.2000	-6.62714E+006	400.357
219.1000	-6.19854E+006	400.58
219.0000	-6.10577E+006	400.806
218.9000	-5.94824E+006	401.03
218.8000	-5.73806E+006	401.258
218.7000	-5.71122E+006	401.479
218.6000	-4.99912E+006	401.706
218.5000	-4.77868E+006	401.925
218.4000	-5.16279E+006	402.146
218.3000	-5.35869E+006	402.364
218.2000	-5.46304E+006	402.589
218.1000	-5.53751E+006	402.809
218.0000	-5.50242E+006	403.033
217.9000	-5.57094E+006	403.252
217.8000	-5.59455E+006	403.464
217.7000	-5.28432E+006	403.69
217.6000	-4.77656E+006	403.913
217.5000	-4.3747E+006	404.144
217.4000	-3.69396E+006	404.369
217.3000	-3.34176E+006	404.593
217.2000	-2.79089E+006	404.819
217.1000	-2.605E+006	405.038
217.0000	-2.62307E+006	405.256
216.9000	-2.70031E+006	405.476
216.8000	-3.07725E+006	405.687
216.7000	-3.71687E+006	405.893
216.6000	-4.99353E+006	406.101
216.5000	-5.4882E+006	406.313
216.4000	-5.85778E+006	406.522
216.3000	-6.0193E+006	406.734
216.2000	-5.7916E+006	406.959
216.1000	-5.60319E+006	407.181
216.0000	-5.28716E+006	407.406
215.9000	-4.89353E+006	407.63
215.8000	-4.70392E+006	407.849
215.7000	-4.22113E+006	408.078
215.6000	-4.4183E+006	408.302
215.5000	-4.32491E+006	408.534
215.4000	-4.65337E+006	408.76
215.3000	-5.33121E+006	408.981
215.2000	-5.86365E+006	409.202
215.1000	-5.93359E+006	409.441
215.0000	-5.47874E+006	409.686
214.9000	-5.45052E+006	409.922
214.8000	-5.41414E+006	410.159
214.7000	-5.69363E+006	410.395
214.6000	-5.51957E+006	410.635
214.5000	-5.0697E+006	410.877
214.4000	-4.46398E+006	411.126
214.3000	-4.70706E+006	411.361
214.2000	-4.85597E+006	411.596
214.1000	-4.67705E+006	411.833
214.0000	-4.36672E+006	412.074
213.9000	-4.58819E+006	412.311
213.8000	-5.20243E+006	412.546
213.7000	-6.06349E+006	412.783
213.6000	-6.69405E+006	413.019
213.5000	-6.3349E+006	413.268
213.4000	-5.55983E+006	413.524
213.3000	-5.7105E+006	413.775
213.2000	-5.91795E+006	414.028
213.1000	-5.83819E+006	414.285
213.0000	-5.82769E+006	414.543
212.9000	-5.38102E+006	414.807
212.8000	-4.71545E+006	415.065
212.7000	-4.89504E+006	415.316
212.6000	-5.80651E+006	415.562
212.5000	-6.15301E+006	415.813
212.4000	-6.12517E+006	416.071
212.3000	-5.83213E+006	416.326
212.2000	-5.56378E+006	416.583
212.1000	-4.92626E+006	416.847
212.0000	-5.22146E+006	417.114
211.9000	-5.93462E+006	417.382
211.8000	-5.62917E+006	417.655
211.7000	-5.57011E+006	417.93
211.6000	-5.31999E+006	418.209
211.5000	-5.29594E+006	418.484
211.4000	-5.16535E+006	418.764
211.3000	-5.13642E+006	419.044
211.2000	-5.2215E+006	419.318
211.1000	-5.05137E+006	419.596
211.0000	-4.97001E+006	419.88
210.9000	-5.35798E+006	420.16
210.8000	-5.14489E+006	420.443
210.7000	-5.51274E+006	420.731
210.6000	-5.99244E+006	421.019
210.5000	-6.82789E+006	421.306
210.4000	-7.29002E+006	421.598
210.3000	-6.95249E+006	421.903
210.2000	-6.2971E+006	422.204
210.1000	-5.92836E+006	422.507
210.0000	-5.47431E+006	422.814
209.9000	-4.98418E+006	423.12
209.8000	-4.3716E+006	423.421
209.7000	-4.2525E+006	423.723
209.6000	-4.02195E+006	424.026
209.5000	-4.37913E+006	424.324
209.4000	-5.01356E+006	424.621
209.3000	-4.70481E+006	424.929
209.2000	-4.58504E+006	425.236
209.1000	-5.19643E+006	425.537
209.0000	-6.01772E+006	425.838
208.9000	-6.52769E+006	426.145
208.8000	-6.93209E+006	426.452
208.7000	-6.6342E+006	426.763
208.6000	-5.94799E+006	427.087
208.5000	-5.85082E+006	427.406
208.4000	-6.28716E+006	427.719
208.3000	-6.57787E+006	428.039
208.2000	-6.29591E+006	428.368
208.1000	-5.39573E+006	428.702
208.0000	-4.84054E+006	429.032
207.9000	-4.45416E+006	429.361
207.8000	-4.45925E+006	429.689
207.7000	-4.79166E+006	430.013
207.6000	-5.32671E+006	430.339
207.5000	-5.76755E+006	430.662
207.4000	-6.07123E+006	430.983
207.3000	-6.56827E+006	431.3
207.2000	-6.89579E+006	431.622
207.1000	-7.88234E+006	431.936
207.0000	-8.0781E+006	432.26
206.9000	-8.34942E+006	432.581
206.8000	-8.03063E+006	432.908
206.7000	-7.46559E+006	433.238
206.6000	-7.55021E+006	433.563
206.5000	-8.15832E+006	433.885
206.4000	-8.47731E+006	434.212
206.3000	-8.5249E+006	434.546
206.2000	-8.84299E+006	434.872
206.1000	-8.92641E+006	435.197
206.0000	-8.88077E+006	435.525
205.9000	-8.40318E+006	435.852
205.8000	-7.42872E+006	436.187
205.7000	-6.32915E+006	436.523
205.6000	-5.06329E+006	436.86
205.5000	-4.03041E+006	437.198
205.4000	-2.84391E+006	437.539
205.3000	-2.6396E+006	437.874
205.2000	-2.61044E+006	438.208
205.1000	-3.0548E+006	438.544
205.0000	-3.68602E+006	438.879
204.9000	-4.13207E+006	439.219
204.8000	-4.90585E+006	439.561
204.7000	-5.26308E+006	439.912
204.6000	-5.32373E+006	440.266
204.5000	-5.07139E+006	440.628
204.4000	-4.84115E+006	440.993
204.3000	-3.96065E+006	441.366
204.2000	-3.46829E+006	441.737
204.1000	-2.98211E+006	442.107
204.0000	-2.3009E+006	442.482
203.9000	-2.05983E+006	442.853
203.8000	-2.17645E+006	443.222
203.7000	-2.53894E+006	443.593
203.6000	-2.85684E+006	443.967
203.5000	-2.60477E+006	444.345
203.4000	-1.93631E+006	444.734
203.3000	-1.99542E+006	445.121
203.2000	-2.45947E+006	445.509
203.1000	-2.59603E+006	445.901
203.0000	-2.0482E+006	446.302
202.9000	-1.71118E+006	446.7
202.8000	-1.02194E+006	447.099
202.7000	-787200	447.5
202.6000	-915818	447.899
202.5000	-243598	448.301
202.4000	517666	448.706
202.3000	1.25754E+006	449.116
202.2000	1.31618E+006	449.521
202.1000	1.05362E+006	449.927
202.0000	1.12648E+006	450.344
201.9000	176517	450.76
201.8000	-873098	451.182
201.7000	-1.91124E+006	451.615
201.6000	-2.82276E+006	452.057
201.5000	-3.5842E+006	452.503
201.4000	-3.42488E+006	452.958
201.3000	-3.02817E+006	453.426
201.2000	-3.03001E+006	453.895
201.1000	-2.58189E+006	454.372
201.0000	-1.0522E+006	454.863
200.9000	-552472	455.35
200.8000	28059.4	455.846
200.7000	834689	456.353
200.6000	846497	456.868
200.5000	110440	457.386
200.4000	134339	457.923
200.3000	591376	458.473
200.2000	502458	459.024
200.1000	774950	459.581
200.0000	1.49657E+006	460.143
199.9000	2.1995E+006	460.708
199.8000	3.08253E+006	461.27
199.7000	4.1411E+006	461.827
199.6000	5.36733E+006	462.386
199.5000	5.65478E+006	462.941
199.4000	6.0681E+006	463.498
199.3000	6.0347E+006	464.056
199.2000	5.89653E+006	464.626
199.1000	5.08647E+006	465.2
199.0000	4.52925E+006	465.788
198.9000	4.45228E+006	466.402
198.8000	4.21752E+006	467.027
198.7000	4.49234E+006	467.674
198.6000	4.3756E+006	468.335
198.5000	4.11531E+006	469.019
198.4000	3.98969E+006	469.714
198.3000	4.91441E+006	470.431
198.2000	5.43729E+006	471.173
198.1000	5.32102E+006	471.933
198.0000	5.28353E+006	472.726
197.9000	5.40758E+006	473.54
197.8000	6.52888E+006	474.379
197.7000	7.95705E+006	475.237
197.6000	8.14297E+006	476.092
197.5000	7.40797E+006	476.944
197.4000	7.40905E+006	477.785
197.3000	8.74564E+006	478.616
197.2000	9.51421E+006	479.409
197.1000	9.95978E+006	480.169
197.0000	9.2708E+006	480.899
196.9000	8.40676E+006	481.619
196.8000	8.26911E+006	482.344
196.7000	1.03464E+007	483.101
196.6000	1.14347E+007	483.876
196.5000	1.18385E+007	484.683
196.4000	1.22642E+007	485.547
196.3000	1.24843E+007	486.466
196.2000	1.20465E+007	487.44
196.1000	1.17016E+007	488.474
196.0000	1.28747E+007	489.588
195.9000	1.25605E+007	490.777
195.8000	1.06634E+007	492.055
195.7000	9.36094E+006	493.456
195.6000	8.0718E+006	494.965
195.5000	7.6565E+006	496.592
195.4000	7.82658E+006	498.307
195.3000	8.39986E+006	500.074
195.2000	8.96232E+006	501.87
195.1000	9.09248E+006	503.633
195.0000	1.08054E+007	505.32
194.9000	1.23524E+007	506.852
194.8000	1.27729E+007	508.208
194.7000	1.34165E+007	509.4
194.6000	1.34567E+007	510.461
194.5000	1.37864E+007	511.435
194.4000	1.39339E+007	512.362
194.3000	1.12672E+007	513.255
194.2000	9.74411E+006	514.223
194.1000	7.72764E+006	515.313
194.0000	7.61601E+006	516.613
193.9000	6.82003E+006	518.136
193.8000	7.43858E+006	519.903
193.7000	6.46741E+006	521.93
193.6000	5.34068E+006	524.253
193.5000	7.01466E+006	526.93
193.4000	9.52754E+006	529.999
193.3000	1.12861E+007	533.43
193.2000	1.20682E+007	537.167
193.1000	1.16707E+007	541.121
193.0000	1.03775E+007	545.205
192.9000	9.5822E+006	549.297
192.8000	1.03212E+007	553.262
192.7000	9.80578E+006	556.889
192.6000	7.68965E+006	559.982
192.5000	6.445E+006	562.496
192.4000	5.49268E+006	564.476
192.3000	6.13579E+006	566.013
192.2000	7.01482E+006	567.203
192.1000	7.13382E+006	568.159
192.0000	9.25292E+006	569.065
191.9000	1.43635E+007	570.137
191.8000	1.76483E+007	571.574
191.7000	1.87278E+007	573.529
191.6000	1.95266E+007	576.065
191.5000	1.91508E+007	579.169
191.4000	1.97605E+007	582.871
191.3000	2.16115E+007	587.25
191.2000	2.15886E+007	592.299
191.1000	1.86149E+007	597.947
191.0000	1.37808E+007	604.105
190.9000	1.12346E+007	610.665
190.8000	1.02671E+007	617.498
190.7000	8.89173E+006	624.409
190.6000	9.12543E+006	631.22
190.5000	1.1637E+007	637.622
190.4000	1.33702E+007	643.304
190.3000	1.40418E+007	648.145
190.2000	1.54074E+007	652.183
190.1000	1.89466E+007	655.53
190.0000	2.05542E+007	658.302

##### Extended Information
[Comments]
Sample name	ACE2_seo_0.8uM
Comment
User
Division
Company	CSIR-IMTECH

[Detailed Information]
Creation date	4/8/2024 5:36 PM

Data array type	Linear data array * 2
Horizontal axis	Wavelength [nm]
Vertical axis(1)	Mol. Ellip.
Vertical axis(2)	HT [V]
Start	350 nm
End	190 nm
Data interval	0.1 nm
Data points	1601    

[Measurement Information]
Instrument Name	JASCO CD
Model Name	J-815
Serial No.	B063061168

Accessory	PTC-423S
Accessory S/N	C013945-01
  Temperature	36.77 C
  Control Sonsor	Cell
  Monitor Sensor	Cell
  Start Mode	Start immediately
  Cell Length	10 mm

Measurement date	4/8/2024 5:35 PM

Photometric Mode	CD, HT
Measure Range	350 - 190 nm
Data pitch	0.1 nm
Sensitivity	Standard
D.I.T.	1 sec
Bandwidth	1.00 nm
Start Mode	Immediately
Scanning Speed	50 nm/min
Baseline Correction	None
Shutter Control	Auto
CD Detector	PMT
PMT Voltage	Auto
Accumulations	3
Concentration	0.27 umol/L

