TITLE	ACE2_Erg_0.6uM
DATA TYPE	
ORIGIN	JASCO
OWNER	
DATE	24/04/09
TIME	14:43:43
SPECTROMETER/DATA SYSTEM	
LOCALE	1033
RESOLUTION	
DELTAX	-0.1
XUNITS	NANOMETERS
YUNITS	CD [mdeg]
Y2UNITS	HT [V]
FIRSTX	  350.0000
LASTX	  190.0000
NPOINTS	    1601
FIRSTY	    -0.59139
MAXY	     8.20003
MINY	    -2.21419
XYDATA
350.0000	-0.59139	484.061
349.9000	-0.546921	483.448
349.8000	-0.587355	482.537
349.7000	-0.843586	481.603
349.6000	-0.991766	480.929
349.5000	-0.94898	480.354
349.4000	-0.963136	479.466
349.3000	-0.811973	478.844
349.2000	-0.446787	478.325
349.1000	-0.0201518	477.502
349.0000	0.182359	476.889
348.9000	0.657756	476.356
348.8000	1.05447	475.514
348.7000	0.990633	474.643
348.6000	0.742361	474.005
348.5000	0.520184	473.451
348.4000	0.597985	472.581
348.3000	0.608308	471.928
348.2000	0.642414	471.353
348.1000	0.717924	470.482
348.0000	0.541258	469.823
347.9000	0.709802	469.258
347.8000	0.979066	468.428
347.7000	1.13907	467.58
347.6000	0.837624	466.957
347.5000	0.537565	466.432
347.4000	0.340912	465.618
347.3000	0.07325	465.007
347.2000	0.0432641	464.498
347.1000	0.124148	463.725
347.0000	0.145585	463.139
346.9000	0.0240093	462.627
346.8000	-0.0116204	461.848
346.7000	0.19055	461.061
346.6000	0.213612	460.475
346.5000	0.331975	459.722
346.4000	0.325975	458.954
346.3000	0.0177273	458.36
346.2000	-0.136305	457.584
346.1000	-0.138814	456.794
346.0000	0.167272	456.216
345.9000	0.336843	455.715
345.8000	0.479103	454.938
345.7000	0.489212	454.356
345.6000	0.394712	453.85
345.5000	0.565935	453.117
345.4000	0.658	452.585
345.3000	0.60726	452.136
345.2000	0.65426	451.432
345.1000	0.544783	450.713
345.0000	0.316002	450.179
344.9000	0.230006	449.493
344.8000	0.176333	448.796
344.7000	0.1881	448.263
344.6000	0.14885	447.582
344.5000	-0.0430629	446.889
344.4000	-0.116842	446.374
344.3000	-0.114389	445.68
344.2000	0.0201001	444.977
344.1000	0.000223634	444.441
344.0000	0.153314	443.78
343.9000	0.282433	443.113
343.8000	0.376066	442.621
343.7000	0.564808	442.192
343.6000	0.647555	441.525
343.5000	0.643638	441.047
343.4000	0.697065	440.651
343.3000	0.741127	440.035
343.2000	0.58839	439.571
343.1000	0.312565	439.157
343.0000	0.101277	438.537
342.9000	0.0103119	437.909
342.8000	-0.0755589	437.441
342.7000	0.0660687	436.825
342.6000	0.0216439	436.198
342.5000	-0.0762742	435.723
342.4000	-0.115661	435.123
342.3000	0.0752061	434.522
342.2000	0.326836	434.071
342.1000	0.472698	433.489
342.0000	0.534913	432.905
341.9000	0.43513	432.487
341.8000	0.398884	431.921
341.7000	0.429999	431.35
341.6000	0.490691	430.928
341.5000	0.333622	430.384
341.4000	0.187079	429.834
341.3000	-0.0154464	429.421
341.2000	-0.140093	428.843
341.1000	-0.32889	428.244
341.0000	-0.336993	427.808
340.9000	-0.499091	427.241
340.8000	-0.652849	426.661
340.7000	-0.714676	426.213
340.6000	-0.710085	425.651
340.5000	-0.73921	425.082
340.4000	-0.770358	424.668
340.3000	-0.525722	424.145
340.2000	-0.366493	423.614
340.1000	-0.384173	423.223
340.0000	-0.375031	422.732
339.9000	-0.235748	422.241
339.8000	-0.0480952	421.877
339.7000	0.161776	421.414
339.6000	0.261583	420.947
339.5000	0.190121	420.615
339.4000	0.0399871	420.146
339.3000	0.135023	419.659
339.2000	0.262144	419.137
339.1000	0.419476	418.67
339.0000	0.428693	418.185
338.9000	0.358369	417.626
338.8000	0.348939	417.117
338.7000	0.480059	416.601
338.6000	0.477276	416.047
338.5000	0.411567	415.562
338.4000	0.434081	415.201
338.3000	0.36387	414.739
338.2000	0.331125	414.274
338.1000	0.314122	413.943
338.0000	0.264746	413.504
337.9000	0.0392617	413.057
337.8000	-0.119055	412.741
337.7000	-0.1446	412.347
337.6000	-0.226481	411.938
337.5000	-0.266757	411.627
337.4000	-0.300239	411.227
337.3000	-0.415154	410.807
337.2000	-0.500128	410.337
337.1000	-0.490588	409.921
337.0000	-0.519941	409.497
336.9000	-0.607524	409.036
336.8000	-0.616243	408.63
336.7000	-0.583152	408.225
336.6000	-0.546617	407.772
336.5000	-0.364415	407.365
336.4000	-0.19128	407.079
336.3000	-0.0938666	406.683
336.2000	0.096048	406.28
336.1000	0.406324	405.977
336.0000	0.522802	405.583
335.9000	0.445689	405.166
335.8000	0.428491	404.712
335.7000	0.331125	404.306
335.6000	0.185877	403.889
335.5000	0.135286	403.468
335.4000	0.104836	403.103
335.3000	0.0904647	402.739
335.2000	0.100673	402.348
335.1000	0.258127	402.009
335.0000	0.213661	401.774
334.9000	0.2685	401.445
334.8000	0.283611	401.105
334.7000	0.423354	400.739
334.6000	0.452283	400.412
334.5000	0.453791	400.073
334.4000	0.419913	399.678
334.3000	0.238034	399.309
334.2000	0.188284	398.935
334.1000	0.124533	398.526
334.0000	0.0737133	398.165
333.9000	-0.0741397	397.896
333.8000	-0.237544	397.538
333.7000	-0.392066	397.173
333.6000	-0.470295	396.781
333.5000	-0.449075	396.444
333.4000	-0.399979	396.105
333.3000	-0.46492	395.75
333.2000	-0.322467	395.45
333.1000	-0.185752	395.147
333.0000	-0.0111948	394.82
332.9000	0.0540921	394.525
332.8000	0.10391	394.178
332.7000	0.112132	393.87
332.6000	0.167481	393.558
332.5000	0.29409	393.227
332.4000	0.280418	392.929
332.3000	0.15759	392.62
332.2000	0.173218	392.261
332.1000	0.129742	391.932
332.0000	0.0849224	391.593
331.9000	0.067118	391.31
331.8000	-0.0902026	391.021
331.7000	-0.234162	390.685
331.6000	-0.36753	390.372
331.5000	-0.464991	389.942
331.4000	-0.589455	389.609
331.3000	-0.595623	389.325
331.2000	-0.599508	389.006
331.1000	-0.693687	388.717
331.0000	-0.710381	388.419
330.9000	-0.579536	388.119
330.8000	-0.516857	387.859
330.7000	-0.383068	387.557
330.6000	-0.403907	387.285
330.5000	-0.388666	387.011
330.4000	-0.374069	386.723
330.3000	-0.281037	386.475
330.2000	-0.232959	386.102
330.1000	-0.204819	385.793
330.0000	-0.0091115	385.515
329.9000	0.0795416	385.227
329.8000	0.110683	384.976
329.7000	0.19975	384.639
329.6000	0.343324	384.374
329.5000	0.380062	384.132
329.4000	0.342738	383.838
329.3000	0.265344	383.58
329.2000	0.076896	383.214
329.1000	-0.0912929	382.917
329.0000	-0.155814	382.658
328.9000	-0.243368	382.372
328.8000	-0.322341	382.114
328.7000	-0.435119	381.758
328.6000	-0.39481	381.497
328.5000	-0.262569	381.288
328.4000	-0.146147	381.039
328.3000	-0.0758533	380.819
328.2000	0.0288887	380.526
328.1000	0.0455479	380.29
328.0000	0.00399676	380.08
327.9000	-0.00135949	379.82
327.8000	0.0931174	379.593
327.7000	0.0455005	379.328
327.6000	-0.0438625	379.144
327.5000	-0.0217357	379.006
327.4000	-0.0593154	378.741
327.3000	-0.0257994	378.491
327.2000	0.0105629	378.189
327.1000	0.112511	377.975
327.0000	0.0922037	377.795
326.9000	0.061999	377.518
326.8000	0.0931906	377.243
326.7000	0.118352	376.921
326.6000	0.055345	376.72
326.5000	-0.0375265	376.582
326.4000	-0.030987	376.33
326.3000	0.00132966	376.085
326.2000	0.0121712	375.811
326.1000	-0.0255439	375.62
326.0000	-0.0868724	375.327
325.9000	-0.174583	375.062
325.8000	-0.163798	374.812
325.7000	-0.118385	374.555
325.6000	-0.143301	374.403
325.5000	-0.227402	374.103
325.4000	-0.301746	373.816
325.3000	-0.317182	373.532
325.2000	-0.193852	373.362
325.1000	-0.116429	373.239
325.0000	-0.0385916	372.954
324.9000	-0.0230749	372.66
324.8000	-0.0388691	372.362
324.7000	0.0305223	372.214
324.6000	0.0239362	372.138
324.5000	-0.041561	371.878
324.4000	-0.0612727	371.611
324.3000	-0.12595	371.351
324.2000	-0.194883	371.202
324.1000	-0.219539	370.942
324.0000	-0.227776	370.684
323.9000	-0.172499	370.419
323.8000	-0.137795	370.172
323.7000	-0.0621006	370.05
323.6000	0.000292204	369.783
323.5000	0.00501998	369.495
323.4000	0.052038	369.22
323.3000	0.147532	369.075
323.2000	0.255124	368.987
323.1000	0.202005	368.719
323.0000	0.123119	368.429
322.9000	0.157072	368.142
322.8000	0.182114	368
322.7000	0.260818	367.746
322.6000	0.273046	367.466
322.5000	0.243457	367.18
322.4000	0.18484	366.893
322.3000	0.212281	366.72
322.2000	0.288266	366.43
322.1000	0.241056	366.112
322.0000	0.172448	365.803
321.9000	0.0989608	365.627
321.8000	0.0248332	365.339
321.7000	-0.0643304	365.036
321.6000	-0.100851	364.728
321.5000	-0.150657	364.447
321.4000	-0.153613	364.305
321.3000	-0.0870931	364.096
321.2000	-0.0609715	363.886
321.1000	-0.123788	363.679
321.0000	-0.11323	363.62
320.9000	-0.0605953	363.479
320.8000	-0.0156322	363.334
320.7000	0.0952276	363.204
320.6000	0.15321	363.063
320.5000	0.144022	363.023
320.4000	0.0928989	362.856
320.3000	0.107314	362.67
320.2000	0.0527187	362.491
320.1000	-0.02212	362.421
320.0000	-0.0391553	362.256
319.9000	-0.194846	362.061
319.8000	-0.314318	361.863
319.7000	-0.453868	361.658
319.6000	-0.480154	361.437
319.5000	-0.514783	361.276
319.4000	-0.566155	361.092
319.3000	-0.607457	360.88
319.2000	-0.650739	360.768
319.1000	-0.475355	360.573
319.0000	-0.396573	360.359
318.9000	-0.413836	360.141
318.8000	-0.55783	360.019
318.7000	-0.640827	359.787
318.6000	-0.595004	359.549
318.5000	-0.463748	359.353
318.4000	-0.351982	359.155
318.3000	-0.454174	358.915
318.2000	-0.610051	358.729
318.1000	-0.638175	358.547
318.0000	-0.44981	358.37
317.9000	-0.326985	358.302
317.8000	-0.245709	358.172
317.7000	-0.190773	358.015
317.6000	-0.266842	357.829
317.5000	-0.215334	357.747
317.4000	-0.158978	357.593
317.3000	-0.125309	357.423
317.2000	-0.16308	357.236
317.1000	-0.127779	357.045
317.0000	-0.0912489	356.805
316.9000	-0.136888	356.606
316.8000	-0.0602785	356.419
316.7000	-0.0783972	356.23
316.6000	-0.119602	356.038
316.5000	-0.106167	355.889
316.4000	-0.00146563	355.727
316.3000	-0.0193758	355.553
316.2000	-0.103002	355.377
316.1000	-0.185186	355.245
316.0000	-0.245416	355.115
315.9000	-0.232041	354.951
315.8000	-0.170254	354.85
315.7000	-0.175595	354.681
315.6000	-0.26046	354.527
315.5000	-0.211674	354.353
315.4000	-0.0827309	354.25
315.3000	-0.0203666	354.058
315.2000	0.0376988	353.855
315.1000	0.0537282	353.672
315.0000	-0.00296773	353.49
314.9000	-0.0130206	353.305
314.8000	-0.00853701	353.149
314.7000	0.00468587	352.984
314.6000	-0.097936	352.817
314.5000	-0.0315993	352.668
314.4000	0.00317604	352.56
314.3000	-0.0454084	352.423
314.2000	-0.0889055	352.285
314.1000	-0.142409	352.1
314.0000	-0.205824	351.936
313.9000	-0.257849	351.776
313.8000	-0.245995	351.626
313.7000	-0.316552	351.411
313.6000	-0.346375	351.216
313.5000	-0.315638	351.037
313.4000	-0.294862	350.862
313.3000	-0.276388	350.694
313.2000	-0.230602	350.563
313.1000	-0.220896	350.417
313.0000	-0.258376	350.271
312.9000	-0.268278	350.135
312.8000	-0.290639	350.033
312.7000	-0.311001	349.898
312.6000	-0.327017	349.759
312.5000	-0.341051	349.585
312.4000	-0.353606	349.424
312.3000	-0.326852	349.241
312.2000	-0.304797	349.061
312.1000	-0.28822	348.83
312.0000	-0.332025	348.615
311.9000	-0.359276	348.411
311.8000	-0.399731	348.175
311.7000	-0.416756	347.989
311.6000	-0.429446	347.799
311.5000	-0.425213	347.644
311.4000	-0.396077	347.448
311.3000	-0.40363	347.323
311.2000	-0.419157	347.199
311.1000	-0.477126	347.094
311.0000	-0.380531	346.98
310.9000	-0.401984	346.883
310.8000	-0.428595	346.78
310.7000	-0.428986	346.689
310.6000	-0.412767	346.559
310.5000	-0.428409	346.447
310.4000	-0.399704	346.345
310.3000	-0.407327	346.254
310.2000	-0.493351	346.162
310.1000	-0.471412	346.093
310.0000	-0.433253	346.013
309.9000	-0.356703	345.944
309.8000	-0.364842	345.876
309.7000	-0.379887	345.79
309.6000	-0.328765	345.722
309.5000	-0.263533	345.608
309.4000	-0.217238	345.515
309.3000	-0.20394	345.379
309.2000	-0.241507	345.267
309.1000	-0.340208	345.094
309.0000	-0.424566	344.952
308.9000	-0.43309	344.825
308.8000	-0.507892	344.704
308.7000	-0.593915	344.593
308.6000	-0.648653	344.497
308.5000	-0.702006	344.393
308.4000	-0.704232	344.274
308.3000	-0.671307	344.203
308.2000	-0.623528	344.103
308.1000	-0.598935	344.029
308.0000	-0.632482	343.929
307.9000	-0.587325	343.842
307.8000	-0.544599	343.712
307.7000	-0.507581	343.61
307.6000	-0.484135	343.49
307.5000	-0.430505	343.334
307.4000	-0.41645	343.214
307.3000	-0.452283	343.091
307.2000	-0.442611	342.996
307.1000	-0.436666	342.872
307.0000	-0.428038	342.784
306.9000	-0.465579	342.685
306.8000	-0.527411	342.622
306.7000	-0.552317	342.554
306.6000	-0.616976	342.459
306.5000	-0.65499	342.373
306.4000	-0.662414	342.245
306.3000	-0.664955	342.147
306.2000	-0.634744	342.018
306.1000	-0.556603	341.908
306.0000	-0.495352	341.76
305.9000	-0.53938	341.648
305.8000	-0.501032	341.571
305.7000	-0.390968	341.462
305.6000	-0.363291	341.382
305.5000	-0.366762	341.299
305.4000	-0.406816	341.251
305.3000	-0.427703	341.159
305.2000	-0.437499	341.099
305.1000	-0.381407	341.027
305.0000	-0.34699	340.907
304.9000	-0.373267	340.824
304.8000	-0.350894	340.717
304.7000	-0.319065	340.624
304.6000	-0.318162	340.493
304.5000	-0.347346	340.385
304.4000	-0.36808	340.297
304.3000	-0.384148	340.181
304.2000	-0.378912	340.114
304.1000	-0.381673	340.053
304.0000	-0.396075	340.019
303.9000	-0.426595	339.938
303.8000	-0.459377	339.862
303.7000	-0.42162	339.814
303.6000	-0.446151	339.709
303.5000	-0.43312	339.637
303.4000	-0.481672	339.547
303.3000	-0.516375	339.431
303.2000	-0.567608	339.315
303.1000	-0.564896	339.229
303.0000	-0.572667	339.18
302.9000	-0.618144	339.084
302.8000	-0.598024	339.011
302.7000	-0.631751	338.956
302.6000	-0.613709	338.875
302.5000	-0.610447	338.831
302.4000	-0.564395	338.778
302.3000	-0.531054	338.684
302.2000	-0.592963	338.588
302.1000	-0.62067	338.496
302.0000	-0.632551	338.435
301.9000	-0.649792	338.346
301.8000	-0.643249	338.27
301.7000	-0.701736	338.209
301.6000	-0.767584	338.116
301.5000	-0.832831	338.067
301.4000	-0.854552	338.019
301.3000	-0.759697	337.948
301.2000	-0.718231	337.884
301.1000	-0.610703	337.826
301.0000	-0.568931	337.794
300.9000	-0.540465	337.72
300.8000	-0.416032	337.647
300.7000	-0.313497	337.588
300.6000	-0.253532	337.506
300.5000	-0.232752	337.441
300.4000	-0.189312	337.394
300.3000	-0.210707	337.316
300.2000	-0.310874	337.243
300.1000	-0.317611	337.189
300.0000	-0.306327	337.13
299.9000	-0.390524	337.077
299.8000	-0.385179	337.027
299.7000	-0.388983	336.96
299.6000	-0.446665	336.895
299.5000	-0.538125	336.827
299.4000	-0.467723	336.776
299.3000	-0.403538	336.706
299.2000	-0.412535	336.648
299.1000	-0.356734	336.606
299.0000	-0.290588	336.539
298.9000	-0.260733	336.491
298.8000	-0.227581	336.457
298.7000	-0.224542	336.402
298.6000	-0.274488	336.353
298.5000	-0.314938	336.304
298.4000	-0.311655	336.243
298.3000	-0.332031	336.187
298.2000	-0.400755	336.125
298.1000	-0.479643	336.062
298.0000	-0.503973	336.005
297.9000	-0.453116	335.957
297.8000	-0.378712	335.892
297.7000	-0.405943	335.835
297.6000	-0.440329	335.79
297.5000	-0.445253	335.723
297.4000	-0.416871	335.678
297.3000	-0.402137	335.638
297.2000	-0.436123	335.571
297.1000	-0.516111	335.518
297.0000	-0.607652	335.465
296.9000	-0.636386	335.397
296.8000	-0.631975	335.344
296.7000	-0.67121	335.302
296.6000	-0.70597	335.269
296.5000	-0.754587	335.223
296.4000	-0.749885	335.189
296.3000	-0.753921	335.161
296.2000	-0.690364	335.125
296.1000	-0.667084	335.094
296.0000	-0.713321	335.072
295.9000	-0.671716	335.028
295.8000	-0.638755	334.965
295.7000	-0.585162	334.925
295.6000	-0.541176	334.883
295.5000	-0.50438	334.824
295.4000	-0.491682	334.753
295.3000	-0.548739	334.707
295.2000	-0.567129	334.649
295.1000	-0.537804	334.583
295.0000	-0.55614	334.547
294.9000	-0.655252	334.495
294.8000	-0.708318	334.428
294.7000	-0.709797	334.386
294.6000	-0.742829	334.353
294.5000	-0.735273	334.302
294.4000	-0.672519	334.267
294.3000	-0.69185	334.239
294.2000	-0.71946	334.189
294.1000	-0.657575	334.155
294.0000	-0.63795	334.133
293.9000	-0.636465	334.087
293.8000	-0.673891	334.056
293.7000	-0.670021	334.034
293.6000	-0.702729	333.982
293.5000	-0.721099	333.918
293.4000	-0.66735	333.889
293.3000	-0.704911	333.842
293.2000	-0.703439	333.785
293.1000	-0.721162	333.76
293.0000	-0.732957	333.713
292.9000	-0.714426	333.665
292.8000	-0.734307	333.644
292.7000	-0.772855	333.62
292.6000	-0.771977	333.583
292.5000	-0.764298	333.531
292.4000	-0.733072	333.504
292.3000	-0.639569	333.46
292.2000	-0.541372	333.412
292.1000	-0.508624	333.383
292.0000	-0.454437	333.341
291.9000	-0.362978	333.289
291.8000	-0.360741	333.241
291.7000	-0.340087	333.221
291.6000	-0.322448	333.181
291.5000	-0.278787	333.136
291.4000	-0.310032	333.114
291.3000	-0.309874	333.065
291.2000	-0.302774	332.998
291.1000	-0.329091	332.93
291.0000	-0.337058	332.883
290.9000	-0.307303	332.813
290.8000	-0.355726	332.719
290.7000	-0.41801	332.62
290.6000	-0.446022	332.509
290.5000	-0.452903	332.377
290.4000	-0.446483	332.247
290.3000	-0.47774	332.131
290.2000	-0.484389	331.991
290.1000	-0.467946	331.845
290.0000	-0.491283	331.713
289.9000	-0.561238	331.621
289.8000	-0.642088	331.536
289.7000	-0.658264	331.477
289.6000	-0.703361	331.46
289.5000	-0.640877	331.483
289.4000	-0.644191	331.527
289.3000	-0.701126	331.599
289.2000	-0.696508	331.691
289.1000	-0.599096	331.804
289.0000	-0.487743	331.91
288.9000	-0.510936	332.013
288.8000	-0.496588	332.102
288.7000	-0.504142	332.179
288.6000	-0.528748	332.233
288.5000	-0.474411	332.277
288.4000	-0.412655	332.305
288.3000	-0.379702	332.323
288.2000	-0.422572	332.316
288.1000	-0.380952	332.305
288.0000	-0.324801	332.284
287.9000	-0.329217	332.247
287.8000	-0.286312	332.228
287.7000	-0.249232	332.203
287.6000	-0.27374	332.179
287.5000	-0.322172	332.142
287.4000	-0.292082	332.124
287.3000	-0.336266	332.108
287.2000	-0.463194	332.083
287.1000	-0.584415	332.064
287.0000	-0.665361	332.02
286.9000	-0.718792	331.996
286.8000	-0.744481	331.98
286.7000	-0.720885	331.961
286.6000	-0.736159	331.934
286.5000	-0.759518	331.919
286.4000	-0.753955	331.913
286.3000	-0.671703	331.916
286.2000	-0.629967	331.913
286.1000	-0.580039	331.905
286.0000	-0.563527	331.906
285.9000	-0.596404	331.897
285.8000	-0.638429	331.893
285.7000	-0.679695	331.866
285.6000	-0.669028	331.841
285.5000	-0.654173	331.836
285.4000	-0.660356	331.834
285.3000	-0.694261	331.836
285.2000	-0.749008	331.81
285.1000	-0.783812	331.795
285.0000	-0.786436	331.803
284.9000	-0.808653	331.8
284.8000	-0.836072	331.803
284.7000	-0.917747	331.782
284.6000	-0.95007	331.765
284.5000	-0.934759	331.772
284.4000	-0.969053	331.775
284.3000	-0.979712	331.786
284.2000	-0.975158	331.765
284.1000	-0.974865	331.755
284.0000	-0.920273	331.741
283.9000	-0.875111	331.747
283.8000	-0.881179	331.76
283.7000	-0.926319	331.746
283.6000	-0.903095	331.737
283.5000	-0.843674	331.725
283.4000	-0.78695	331.722
283.3000	-0.780915	331.742
283.2000	-0.789442	331.755
283.1000	-0.766871	331.761
283.0000	-0.682378	331.748
282.9000	-0.58056	331.745
282.8000	-0.509196	331.739
282.7000	-0.500862	331.752
282.6000	-0.555985	331.769
282.5000	-0.596252	331.767
282.4000	-0.586294	331.762
282.3000	-0.546879	331.758
282.2000	-0.531153	331.758
282.1000	-0.493928	331.778
282.0000	-0.500012	331.79
281.9000	-0.467779	331.794
281.8000	-0.365721	331.789
281.7000	-0.323362	331.782
281.6000	-0.312823	331.779
281.5000	-0.305969	331.777
281.4000	-0.28903	331.798
281.3000	-0.291283	331.804
281.2000	-0.281751	331.807
281.1000	-0.292143	331.803
281.0000	-0.348649	331.797
280.9000	-0.316701	331.796
280.8000	-0.291827	331.79
280.7000	-0.282981	331.791
280.6000	-0.308534	331.796
280.5000	-0.330812	331.795
280.4000	-0.352394	331.795
280.3000	-0.355922	331.796
280.2000	-0.319951	331.797
280.1000	-0.300282	331.796
280.0000	-0.311639	331.797
279.9000	-0.345703	331.795
279.8000	-0.322521	331.781
279.7000	-0.332273	331.778
279.6000	-0.338157	331.769
279.5000	-0.333743	331.764
279.4000	-0.431385	331.756
279.3000	-0.543008	331.751
279.2000	-0.612797	331.754
279.1000	-0.623469	331.759
279.0000	-0.634922	331.766
278.9000	-0.66305	331.758
278.8000	-0.708554	331.764
278.7000	-0.722057	331.774
278.6000	-0.704808	331.79
278.5000	-0.635401	331.812
278.4000	-0.51336	331.828
278.3000	-0.441688	331.84
278.2000	-0.433512	331.851
278.1000	-0.372895	331.862
278.0000	-0.336834	331.859
277.9000	-0.297757	331.85
277.8000	-0.296478	331.839
277.7000	-0.265962	331.83
277.6000	-0.320641	331.839
277.5000	-0.327061	331.849
277.4000	-0.306551	331.862
277.3000	-0.313192	331.876
277.2000	-0.357183	331.89
277.1000	-0.396427	331.91
277.0000	-0.390434	331.934
276.9000	-0.402654	331.955
276.8000	-0.417267	331.961
276.7000	-0.48864	331.96
276.6000	-0.541169	331.956
276.5000	-0.558317	331.952
276.4000	-0.557787	331.948
276.3000	-0.543924	331.947
276.2000	-0.553757	331.942
276.1000	-0.598589	331.936
276.0000	-0.65971	331.952
275.9000	-0.697649	331.971
275.8000	-0.671488	331.993
275.7000	-0.655225	332.015
275.6000	-0.672451	332.043
275.5000	-0.742917	332.067
275.4000	-0.718064	332.096
275.3000	-0.674667	332.129
275.2000	-0.680481	332.145
275.1000	-0.63233	332.156
275.0000	-0.583723	332.165
274.9000	-0.584638	332.176
274.8000	-0.604821	332.186
274.7000	-0.526137	332.197
274.6000	-0.521712	332.207
274.5000	-0.566823	332.213
274.4000	-0.533257	332.218
274.3000	-0.484299	332.226
274.2000	-0.480136	332.233
274.1000	-0.528097	332.242
274.0000	-0.541111	332.249
273.9000	-0.537366	332.261
273.8000	-0.539197	332.271
273.7000	-0.542248	332.28
273.6000	-0.560292	332.29
273.5000	-0.600442	332.302
273.4000	-0.617313	332.314
273.3000	-0.59224	332.328
273.2000	-0.575493	332.341
273.1000	-0.536037	332.355
273.0000	-0.492653	332.369
272.9000	-0.455658	332.389
272.8000	-0.428866	332.411
272.7000	-0.384588	332.437
272.6000	-0.329226	332.462
272.5000	-0.281379	332.489
272.4000	-0.195433	332.514
272.3000	-0.197115	332.536
272.2000	-0.166792	332.564
272.1000	-0.139718	332.592
272.0000	-0.108934	332.621
271.9000	-0.0499329	332.644
271.8000	-0.11569	332.661
271.7000	-0.213226	332.672
271.6000	-0.282174	332.68
271.5000	-0.295349	332.687
271.4000	-0.319749	332.695
271.3000	-0.358357	332.7
271.2000	-0.391296	332.701
271.1000	-0.425079	332.704
271.0000	-0.356218	332.71
270.9000	-0.326224	332.698
270.8000	-0.292952	332.693
270.7000	-0.313712	332.689
270.6000	-0.318556	332.688
270.5000	-0.301673	332.684
270.4000	-0.273219	332.682
270.3000	-0.233478	332.681
270.2000	-0.357033	332.678
270.1000	-0.356317	332.693
270.0000	-0.352508	332.708
269.9000	-0.30625	332.723
269.8000	-0.258189	332.741
269.7000	-0.295897	332.758
269.6000	-0.346552	332.778
269.5000	-0.437994	332.789
269.4000	-0.403812	332.794
269.3000	-0.39787	332.806
269.2000	-0.413231	332.822
269.1000	-0.481377	332.838
269.0000	-0.534006	332.848
268.9000	-0.529083	332.865
268.8000	-0.547944	332.877
268.7000	-0.551117	332.899
268.6000	-0.547388	332.929
268.5000	-0.468461	332.97
268.4000	-0.460877	333.011
268.3000	-0.446077	333.043
268.2000	-0.430724	333.08
268.1000	-0.41243	333.106
268.0000	-0.358589	333.14
267.9000	-0.285332	333.171
267.8000	-0.24295	333.215
267.7000	-0.309321	333.25
267.6000	-0.365049	333.285
267.5000	-0.402155	333.328
267.4000	-0.354158	333.369
267.3000	-0.391028	333.423
267.2000	-0.43694	333.465
267.1000	-0.481267	333.515
267.0000	-0.524063	333.559
266.9000	-0.498483	333.614
266.8000	-0.485986	333.661
266.7000	-0.458755	333.698
266.6000	-0.486522	333.746
266.5000	-0.481855	333.796
266.4000	-0.557723	333.856
266.3000	-0.593578	333.92
266.2000	-0.591796	333.985
266.1000	-0.57843	334.043
266.0000	-0.539492	334.087
265.9000	-0.492751	334.144
265.8000	-0.448183	334.199
265.7000	-0.448827	334.251
265.6000	-0.39374	334.301
265.5000	-0.3478	334.349
265.4000	-0.356462	334.382
265.3000	-0.329251	334.414
265.2000	-0.385004	334.46
265.1000	-0.363063	334.513
265.0000	-0.425199	334.564
264.9000	-0.413948	334.63
264.8000	-0.38679	334.684
264.7000	-0.361017	334.741
264.6000	-0.288069	334.808
264.5000	-0.248995	334.884
264.4000	-0.250104	334.965
264.3000	-0.278399	335.038
264.2000	-0.270462	335.121
264.1000	-0.248484	335.198
264.0000	-0.224943	335.277
263.9000	-0.231069	335.352
263.8000	-0.241148	335.423
263.7000	-0.281675	335.498
263.6000	-0.25226	335.58
263.5000	-0.25841	335.656
263.4000	-0.236514	335.727
263.3000	-0.248727	335.774
263.2000	-0.283086	335.83
263.1000	-0.361214	335.896
263.0000	-0.389256	335.975
262.9000	-0.443755	336.041
262.8000	-0.425527	336.098
262.7000	-0.440651	336.158
262.6000	-0.441319	336.223
262.5000	-0.490515	336.299
262.4000	-0.523937	336.368
262.3000	-0.536804	336.442
262.2000	-0.535287	336.511
262.1000	-0.483288	336.59
262.0000	-0.521009	336.655
261.9000	-0.535289	336.731
261.8000	-0.524635	336.809
261.7000	-0.507668	336.88
261.6000	-0.52134	336.958
261.5000	-0.56562	337.033
261.4000	-0.56682	337.109
261.3000	-0.561867	337.174
261.2000	-0.566896	337.25
261.1000	-0.5493	337.326
261.0000	-0.568162	337.401
260.9000	-0.558902	337.476
260.8000	-0.55216	337.557
260.7000	-0.450601	337.644
260.6000	-0.407871	337.728
260.5000	-0.423251	337.822
260.4000	-0.469664	337.919
260.3000	-0.496023	338.015
260.2000	-0.48719	338.094
260.1000	-0.485825	338.178
260.0000	-0.454903	338.271
259.9000	-0.454066	338.35
259.8000	-0.470687	338.431
259.7000	-0.428476	338.507
259.6000	-0.386788	338.567
259.5000	-0.357363	338.621
259.4000	-0.34219	338.691
259.3000	-0.400921	338.755
259.2000	-0.412651	338.826
259.1000	-0.488933	338.905
259.0000	-0.512072	338.978
258.9000	-0.602289	339.052
258.8000	-0.630897	339.145
258.7000	-0.660765	339.24
258.6000	-0.648589	339.331
258.5000	-0.590397	339.434
258.4000	-0.566881	339.525
258.3000	-0.453407	339.615
258.2000	-0.407756	339.714
258.1000	-0.327418	339.811
258.0000	-0.29187	339.906
257.9000	-0.248316	340.002
257.8000	-0.23439	340.095
257.7000	-0.225894	340.186
257.6000	-0.226865	340.289
257.5000	-0.287982	340.379
257.4000	-0.313982	340.475
257.3000	-0.325122	340.561
257.2000	-0.226259	340.649
257.1000	-0.193191	340.731
257.0000	-0.230506	340.807
256.9000	-0.257172	340.883
256.8000	-0.248502	340.941
256.7000	-0.198015	341.016
256.6000	-0.162566	341.095
256.5000	-0.124488	341.177
256.4000	-0.15425	341.275
256.3000	-0.304482	341.365
256.2000	-0.309712	341.47
256.1000	-0.312332	341.582
256.0000	-0.309481	341.696
255.9000	-0.298359	341.818
255.8000	-0.348065	341.92
255.7000	-0.415966	342.025
255.6000	-0.473241	342.115
255.5000	-0.435422	342.185
255.4000	-0.444351	342.258
255.3000	-0.420847	342.32
255.2000	-0.381505	342.385
255.1000	-0.402817	342.442
255.0000	-0.379702	342.516
254.9000	-0.317455	342.581
254.8000	-0.313675	342.65
254.7000	-0.335554	342.748
254.6000	-0.312129	342.848
254.5000	-0.301151	342.951
254.4000	-0.334451	343.047
254.3000	-0.351073	343.148
254.2000	-0.326696	343.243
254.1000	-0.318052	343.337
254.0000	-0.186998	343.429
253.9000	-0.111499	343.512
253.8000	-0.119914	343.572
253.7000	-0.0954085	343.643
253.6000	-0.0811196	343.72
253.5000	-0.0631675	343.806
253.4000	-0.0911658	343.879
253.3000	-0.122712	343.957
253.2000	-0.240262	344.034
253.1000	-0.268993	344.123
253.0000	-0.268439	344.218
252.9000	-0.274853	344.313
252.8000	-0.275516	344.4
252.7000	-0.314765	344.493
252.6000	-0.281394	344.591
252.5000	-0.252661	344.69
252.4000	-0.240086	344.783
252.3000	-0.259438	344.879
252.2000	-0.232457	344.969
252.1000	-0.185078	345.068
252.0000	-0.20624	345.164
251.9000	-0.242513	345.249
251.8000	-0.287558	345.333
251.7000	-0.363382	345.408
251.6000	-0.393827	345.497
251.5000	-0.437205	345.577
251.4000	-0.449732	345.663
251.3000	-0.538349	345.742
251.2000	-0.572008	345.82
251.1000	-0.561915	345.915
251.0000	-0.467067	346.009
250.9000	-0.38367	346.115
250.8000	-0.364191	346.215
250.7000	-0.29067	346.322
250.6000	-0.295961	346.428
250.5000	-0.379829	346.531
250.4000	-0.423739	346.655
250.3000	-0.397397	346.773
250.2000	-0.462309	346.888
250.1000	-0.504749	346.985
250.0000	-0.515416	347.085
249.9000	-0.508061	347.197
249.8000	-0.513879	347.302
249.7000	-0.487624	347.418
249.6000	-0.401177	347.513
249.5000	-0.381103	347.594
249.4000	-0.37448	347.683
249.3000	-0.403942	347.777
249.2000	-0.433019	347.867
249.1000	-0.413902	347.955
249.0000	-0.383618	348.046
248.9000	-0.307271	348.134
248.8000	-0.308156	348.23
248.7000	-0.338825	348.329
248.6000	-0.303976	348.421
248.5000	-0.267832	348.521
248.4000	-0.267464	348.625
248.3000	-0.251678	348.72
248.2000	-0.280887	348.817
248.1000	-0.306287	348.916
248.0000	-0.2701	349.016
247.9000	-0.274311	349.125
247.8000	-0.309505	349.239
247.7000	-0.345192	349.349
247.6000	-0.312521	349.457
247.5000	-0.277024	349.573
247.4000	-0.24787	349.68
247.3000	-0.277474	349.773
247.2000	-0.245387	349.878
247.1000	-0.238706	349.967
247.0000	-0.178691	350.047
246.9000	-0.189314	350.126
246.8000	-0.208307	350.203
246.7000	-0.221332	350.28
246.6000	-0.170161	350.366
246.5000	-0.122482	350.469
246.4000	-0.0894895	350.559
246.3000	-0.0484122	350.648
246.2000	-0.0125392	350.75
246.1000	0.0782725	350.867
246.0000	0.134016	350.983
245.9000	0.116718	351.098
245.8000	-0.00312621	351.206
245.7000	-0.1497	351.312
245.6000	-0.218679	351.434
245.5000	-0.320081	351.562
245.4000	-0.381959	351.684
245.3000	-0.491792	351.795
245.2000	-0.51431	351.916
245.1000	-0.517359	352.04
245.0000	-0.424978	352.17
244.9000	-0.311236	352.301
244.8000	-0.263692	352.425
244.7000	-0.170008	352.557
244.6000	-0.0943787	352.693
244.5000	0.0293951	352.829
244.4000	0.0943005	352.956
244.3000	0.0874153	353.083
244.2000	0.0826572	353.209
244.1000	0.0595754	353.342
244.0000	0.00694738	353.471
243.9000	-0.118748	353.588
243.8000	-0.16414	353.702
243.7000	-0.301159	353.818
243.6000	-0.410845	353.942
243.5000	-0.442918	354.069
243.4000	-0.457668	354.203
243.3000	-0.493982	354.335
243.2000	-0.508399	354.467
243.1000	-0.44356	354.6
243.0000	-0.44736	354.74
242.9000	-0.396024	354.894
242.8000	-0.354242	355.052
242.7000	-0.314887	355.21
242.6000	-0.28068	355.362
242.5000	-0.271385	355.502
242.4000	-0.256573	355.647
242.3000	-0.230354	355.797
242.2000	-0.0951362	355.949
242.1000	-0.102815	356.092
242.0000	-0.136364	356.229
241.9000	-0.119156	356.363
241.8000	-0.202701	356.5
241.7000	-0.272937	356.646
241.6000	-0.272686	356.793
241.5000	-0.208105	356.947
241.4000	-0.268551	357.103
241.3000	-0.314298	357.262
241.2000	-0.305173	357.419
241.1000	-0.317297	357.579
241.0000	-0.36747	357.741
240.9000	-0.352067	357.909
240.8000	-0.359297	358.08
240.7000	-0.40937	358.246
240.6000	-0.444458	358.41
240.5000	-0.482822	358.575
240.4000	-0.420933	358.741
240.3000	-0.412889	358.904
240.2000	-0.367834	359.069
240.1000	-0.358901	359.237
240.0000	-0.363657	359.401
239.9000	-0.327427	359.573
239.8000	-0.347096	359.751
239.7000	-0.349965	359.93
239.6000	-0.396273	360.114
239.5000	-0.422282	360.312
239.4000	-0.49014	360.513
239.3000	-0.51028	360.711
239.2000	-0.452496	360.913
239.1000	-0.412649	361.12
239.0000	-0.419144	361.323
238.9000	-0.38361	361.523
238.8000	-0.367402	361.721
238.7000	-0.38741	361.914
238.6000	-0.449854	362.1
238.5000	-0.405657	362.294
238.4000	-0.398766	362.489
238.3000	-0.439989	362.686
238.2000	-0.455962	362.889
238.1000	-0.405674	363.101
238.0000	-0.427631	363.317
237.9000	-0.518934	363.532
237.8000	-0.441194	363.75
237.7000	-0.276846	363.975
237.6000	-0.303132	364.2
237.5000	-0.360142	364.428
237.4000	-0.36973	364.651
237.3000	-0.435601	364.871
237.2000	-0.486774	365.092
237.1000	-0.403015	365.311
237.0000	-0.419	365.532
236.9000	-0.584564	365.753
236.8000	-0.64014	365.976
236.7000	-0.628739	366.203
236.6000	-0.616147	366.423
236.5000	-0.630328	366.644
236.4000	-0.558497	366.872
236.3000	-0.51724	367.105
236.2000	-0.519281	367.338
236.1000	-0.598011	367.562
236.0000	-0.602844	367.792
235.9000	-0.606591	368.018
235.8000	-0.658001	368.251
235.7000	-0.713944	368.48
235.6000	-0.827665	368.711
235.5000	-0.890567	368.95
235.4000	-0.934773	369.194
235.3000	-0.924704	369.444
235.2000	-0.933614	369.691
235.1000	-0.933617	369.94
235.0000	-0.801259	370.193
234.9000	-0.758316	370.442
234.8000	-0.735912	370.689
234.7000	-0.763157	370.933
234.6000	-0.744001	371.17
234.5000	-0.734942	371.416
234.4000	-0.710527	371.667
234.3000	-0.777616	371.913
234.2000	-0.899868	372.157
234.1000	-0.960621	372.405
234.0000	-0.934719	372.652
233.9000	-0.973994	372.901
233.8000	-1.01686	373.159
233.7000	-1.06234	373.414
233.6000	-1.05578	373.671
233.5000	-0.977518	373.938
233.4000	-0.911842	374.202
233.3000	-0.932437	374.465
233.2000	-0.97655	374.738
233.1000	-0.994979	375.007
233.0000	-1.05995	375.275
232.9000	-1.04751	375.537
232.8000	-1.04591	375.801
232.7000	-1.0872	376.059
232.6000	-1.16573	376.317
232.5000	-1.26457	376.579
232.4000	-1.36637	376.833
232.3000	-1.30406	377.099
232.2000	-1.16844	377.353
232.1000	-1.13538	377.609
232.0000	-1.28594	377.857
231.9000	-1.45546	378.113
231.8000	-1.55627	378.37
231.7000	-1.47212	378.635
231.6000	-1.41602	378.902
231.5000	-1.5181	379.154
231.4000	-1.611	379.42
231.3000	-1.70631	379.682
231.2000	-1.56959	379.961
231.1000	-1.4143	380.23
231.0000	-1.25994	380.495
230.9000	-1.22147	380.758
230.8000	-1.1135	381.019
230.7000	-0.971955	381.294
230.6000	-0.861608	381.564
230.5000	-0.833641	381.838
230.4000	-0.784055	382.109
230.3000	-0.834058	382.383
230.2000	-0.883411	382.663
230.1000	-0.897937	382.949
230.0000	-0.993143	383.225
229.9000	-1.18525	383.49
229.8000	-1.30407	383.761
229.7000	-1.41042	384.026
229.6000	-1.51799	384.289
229.5000	-1.56175	384.539
229.4000	-1.47808	384.783
229.3000	-1.54965	385.019
229.2000	-1.60367	385.253
229.1000	-1.52861	385.493
229.0000	-1.53213	385.728
228.9000	-1.51441	385.967
228.8000	-1.50286	386.206
228.7000	-1.49752	386.464
228.6000	-1.53698	386.728
228.5000	-1.57568	386.999
228.4000	-1.57147	387.285
228.3000	-1.54732	387.58
228.2000	-1.48127	387.871
228.1000	-1.45143	388.171
228.0000	-1.41055	388.47
227.9000	-1.45793	388.758
227.8000	-1.42126	389.041
227.7000	-1.34749	389.337
227.6000	-1.3105	389.63
227.5000	-1.27086	389.911
227.4000	-1.21465	390.192
227.3000	-1.15485	390.469
227.2000	-1.1501	390.738
227.1000	-1.2094	391.007
227.0000	-1.2124	391.279
226.9000	-1.25464	391.544
226.8000	-1.3198	391.796
226.7000	-1.24195	392.051
226.6000	-1.2429	392.301
226.5000	-1.2653	392.547
226.4000	-1.37081	392.793
226.3000	-1.34516	393.038
226.2000	-1.22237	393.299
226.1000	-1.27515	393.551
226.0000	-1.33024	393.799
225.9000	-1.49936	394.039
225.8000	-1.5856	394.285
225.7000	-1.62333	394.538
225.6000	-1.45764	394.796
225.5000	-1.35739	395.052
225.4000	-1.34836	395.299
225.3000	-1.24301	395.556
225.2000	-1.13501	395.814
225.1000	-1.03366	396.074
225.0000	-0.961931	396.331
224.9000	-0.907057	396.584
224.8000	-0.887613	396.832
224.7000	-0.835533	397.077
224.6000	-0.865236	397.317
224.5000	-0.944825	397.55
224.4000	-1.10317	397.777
224.3000	-1.09621	398.012
224.2000	-1.1555	398.243
224.1000	-1.33697	398.472
224.0000	-1.47422	398.701
223.9000	-1.59508	398.934
223.8000	-1.62748	399.173
223.7000	-1.6007	399.417
223.6000	-1.55228	399.661
223.5000	-1.5915	399.901
223.4000	-1.48155	400.144
223.3000	-1.34948	400.381
223.2000	-1.315	400.613
223.1000	-1.40897	400.84
223.0000	-1.5225	401.063
222.9000	-1.68054	401.279
222.8000	-1.71866	401.495
222.7000	-1.66447	401.715
222.6000	-1.79318	401.925
222.5000	-1.8706	402.144
222.4000	-1.829	402.358
222.3000	-1.72387	402.576
222.2000	-1.61316	402.798
222.1000	-1.57163	403.015
222.0000	-1.45426	403.236
221.9000	-1.44888	403.447
221.8000	-1.40168	403.662
221.7000	-1.41188	403.875
221.6000	-1.50766	404.088
221.5000	-1.48401	404.308
221.4000	-1.436	404.52
221.3000	-1.49541	404.731
221.2000	-1.52297	404.941
221.1000	-1.61175	405.148
221.0000	-1.69411	405.349
220.9000	-1.65512	405.551
220.8000	-1.53311	405.761
220.7000	-1.56367	405.956
220.6000	-1.66257	406.15
220.5000	-1.56529	406.351
220.4000	-1.40448	406.549
220.3000	-1.2688	406.754
220.2000	-1.12298	406.965
220.1000	-1.09742	407.169
220.0000	-1.30936	407.364
219.9000	-1.39066	407.571
219.8000	-1.2914	407.783
219.7000	-1.26282	407.991
219.6000	-1.25973	408.197
219.5000	-1.43475	408.397
219.4000	-1.66077	408.595
219.3000	-1.6494	408.798
219.2000	-1.49982	409.006
219.1000	-1.47966	409.204
219.0000	-1.49869	409.404
218.9000	-1.60012	409.595
218.8000	-1.80384	409.79
218.7000	-1.83975	409.983
218.6000	-1.74103	410.179
218.5000	-1.77965	410.368
218.4000	-1.79087	410.563
218.3000	-1.81679	410.753
218.2000	-1.88144	410.945
218.1000	-1.95689	411.133
218.0000	-1.98712	411.326
217.9000	-1.8652	411.52
217.8000	-1.78238	411.708
217.7000	-1.76591	411.896
217.6000	-1.84779	412.078
217.5000	-1.94085	412.266
217.4000	-1.81515	412.455
217.3000	-1.70073	412.643
217.2000	-1.65196	412.829
217.1000	-1.64542	413.014
217.0000	-1.74095	413.193
216.9000	-1.83591	413.377
216.8000	-1.93757	413.561
216.7000	-1.82817	413.745
216.6000	-1.76618	413.931
216.5000	-1.78155	414.114
216.4000	-1.9177	414.286
216.3000	-2.02429	414.459
216.2000	-1.96534	414.647
216.1000	-2.00041	414.828
216.0000	-1.83705	415.013
215.9000	-1.82734	415.194
215.8000	-2.03464	415.364
215.7000	-2.21419	415.542
215.6000	-2.1927	415.73
215.5000	-2.17809	415.919
215.4000	-2.15451	416.105
215.3000	-2.18683	416.284
215.2000	-2.12754	416.468
215.1000	-2.11942	416.658
215.0000	-1.99013	416.854
214.9000	-1.83957	417.051
214.8000	-1.65191	417.244
214.7000	-1.38766	417.444
214.6000	-1.36332	417.636
214.5000	-1.32438	417.83
214.4000	-1.24189	418.027
214.3000	-1.31094	418.215
214.2000	-1.33542	418.405
214.1000	-1.2514	418.597
214.0000	-1.2381	418.787
213.9000	-1.33481	418.975
213.8000	-1.48209	419.164
213.7000	-1.41014	419.36
213.6000	-1.46259	419.555
213.5000	-1.37335	419.754
213.4000	-1.14808	419.959
213.3000	-1.11585	420.161
213.2000	-1.02587	420.366
213.1000	-0.957844	420.572
213.0000	-0.841833	420.78
212.9000	-0.83326	420.988
212.8000	-0.92491	421.189
212.7000	-0.981327	421.391
212.6000	-1.11664	421.593
212.5000	-1.14568	421.799
212.4000	-1.1513	422.006
212.3000	-1.14224	422.213
212.2000	-1.20128	422.419
212.1000	-1.24566	422.625
212.0000	-1.15787	422.843
211.9000	-1.13492	423.064
211.8000	-1.12833	423.279
211.7000	-1.35668	423.49
211.6000	-1.52533	423.703
211.5000	-1.64737	423.917
211.4000	-1.75001	424.136
211.3000	-1.72695	424.359
211.2000	-1.71527	424.577
211.1000	-1.4194	424.807
211.0000	-1.40464	425.034
210.9000	-1.44656	425.26
210.8000	-1.34136	425.49
210.7000	-1.21897	425.731
210.6000	-1.12553	425.969
210.5000	-1.04631	426.211
210.4000	-1.13531	426.45
210.3000	-1.47494	426.685
210.2000	-1.74076	426.917
210.1000	-1.72801	427.164
210.0000	-1.78448	427.409
209.9000	-1.75718	427.656
209.8000	-1.7993	427.892
209.7000	-1.93002	428.131
209.6000	-2.00888	428.373
209.5000	-1.87794	428.625
209.4000	-1.72124	428.879
209.3000	-1.64001	429.131
209.2000	-1.54611	429.388
209.1000	-1.7674	429.637
209.0000	-2.01192	429.885
208.9000	-2.06597	430.146
208.8000	-1.88175	430.412
208.7000	-1.70685	430.679
208.6000	-1.66444	430.947
208.5000	-1.61154	431.215
208.4000	-1.63022	431.479
208.3000	-1.55714	431.752
208.2000	-1.37116	432.031
208.1000	-1.19542	432.313
208.0000	-1.33427	432.583
207.9000	-1.54108	432.855
207.8000	-1.58715	433.131
207.7000	-1.50737	433.41
207.6000	-1.65071	433.686
207.5000	-1.54416	433.967
207.4000	-1.48548	434.244
207.3000	-1.62619	434.515
207.2000	-1.65215	434.794
207.1000	-1.60359	435.074
207.0000	-1.68161	435.35
206.9000	-1.80044	435.626
206.8000	-1.59907	435.914
206.7000	-1.63491	436.193
206.6000	-1.68383	436.473
206.5000	-1.52909	436.762
206.4000	-1.42988	437.049
206.3000	-1.57186	437.33
206.2000	-1.55759	437.612
206.1000	-1.40925	437.898
206.0000	-1.47261	438.176
205.9000	-1.47435	438.457
205.8000	-1.30942	438.748
205.7000	-1.25465	439.035
205.6000	-1.30379	439.324
205.5000	-1.02909	439.626
205.4000	-0.917055	439.925
205.3000	-0.956236	440.224
205.2000	-1.13492	440.526
205.1000	-1.22427	440.833
205.0000	-1.35182	441.14
204.9000	-1.42082	441.452
204.8000	-1.37214	441.77
204.7000	-1.3015	442.095
204.6000	-1.17486	442.419
204.5000	-1.11014	442.749
204.4000	-0.876475	443.084
204.3000	-0.735601	443.418
204.2000	-0.764861	443.754
204.1000	-0.857508	444.088
204.0000	-0.726194	444.432
203.9000	-0.620089	444.774
203.8000	-0.385201	445.126
203.7000	-0.3158	445.474
203.6000	-0.14168	445.829
203.5000	-0.161959	446.184
203.4000	-0.0800303	446.547
203.3000	0.0853593	446.915
203.2000	-0.0896086	447.275
203.1000	-0.35336	447.637
203.0000	-0.703558	448.001
202.9000	-0.941091	448.373
202.8000	-0.983343	448.75
202.7000	-0.98002	449.131
202.6000	-0.865412	449.51
202.5000	-0.754624	449.892
202.4000	-0.65205	450.275
202.3000	-0.70151	450.66
202.2000	-0.68031	451.051
202.1000	-0.649903	451.44
202.0000	-0.443847	451.844
201.9000	-0.392297	452.25
201.8000	-0.268423	452.67
201.7000	-0.181221	453.09
201.6000	-0.163034	453.519
201.5000	-0.0259823	453.959
201.4000	0.218004	454.405
201.3000	0.352659	454.859
201.2000	0.429076	455.317
201.1000	0.492162	455.78
201.0000	0.344048	456.236
200.9000	0.315546	456.707
200.8000	0.436396	457.19
200.7000	0.648999	457.683
200.6000	0.609603	458.178
200.5000	0.5799	458.684
200.4000	0.617713	459.206
200.3000	0.560794	459.731
200.2000	0.381107	460.263
200.1000	0.250396	460.799
200.0000	0.0666334	461.34
199.9000	-0.362977	461.876
199.8000	-0.324512	462.421
199.7000	-0.249569	462.963
199.6000	-0.284546	463.499
199.5000	-0.331849	464.039
199.4000	-0.213659	464.587
199.3000	-0.137148	465.135
199.2000	0.215822	465.702
199.1000	0.729769	466.282
199.0000	1.05347	466.869
198.9000	0.970229	467.46
198.8000	1.00501	468.07
198.7000	1.06272	468.703
198.6000	1.13076	469.355
198.5000	1.22783	470.032
198.4000	1.3518	470.725
198.3000	1.43778	471.43
198.2000	1.42899	472.159
198.1000	1.54396	472.917
198.0000	1.81966	473.716
197.9000	1.68093	474.519
197.8000	1.7033	475.343
197.7000	1.89517	476.19
197.6000	1.84123	477.045
197.5000	1.58876	477.906
197.4000	1.4894	478.768
197.3000	1.56953	479.624
197.2000	1.65508	480.448
197.1000	1.76353	481.248
197.0000	1.91613	482.036
196.9000	1.89308	482.813
196.8000	2.12409	483.596
196.7000	2.11975	484.383
196.6000	2.02313	485.197
196.5000	2.05887	486.051
196.4000	2.00017	486.962
196.3000	1.84874	487.925
196.2000	1.70655	488.946
196.1000	1.62832	490.028
196.0000	1.55939	491.183
195.9000	1.6319	492.431
195.8000	2.21301	493.79
195.7000	2.33359	495.248
195.6000	2.29313	496.811
195.5000	2.52015	498.501
195.4000	2.94551	500.293
195.3000	3.02319	502.138
195.2000	3.17219	504.014
195.1000	3.1946	505.878
195.0000	3.04446	507.663
194.9000	2.85191	509.318
194.8000	2.89666	510.82
194.7000	2.85594	512.152
194.6000	2.72419	513.35
194.5000	2.96895	514.463
194.4000	3.20135	515.521
194.3000	3.39422	516.556
194.2000	3.54247	517.635
194.1000	3.85897	518.84
194.0000	3.86698	520.209
193.9000	3.64489	521.782
193.8000	3.57454	523.59
193.7000	3.65029	525.667
193.6000	3.63862	528.027
193.5000	3.78695	530.719
193.4000	3.66175	533.775
193.3000	3.22759	537.186
193.2000	3.01289	540.931
193.1000	3.05335	544.946
193.0000	3.71689	549.148
192.9000	3.85559	553.387
192.8000	3.81594	557.537
192.7000	3.82966	561.435
192.6000	4.05184	564.877
192.5000	4.39724	567.751
192.4000	4.67019	570.077
192.3000	4.64199	571.923
192.2000	4.20499	573.38
192.1000	4.08953	574.576
192.0000	3.89732	575.639
191.9000	3.8807	576.762
191.8000	3.40212	578.17
191.7000	3.04825	580.08
191.6000	2.73132	582.562
191.5000	3.36409	585.662
191.4000	4.25998	589.355
191.3000	4.30781	593.674
191.2000	4.81591	598.689
191.1000	4.56272	604.337
191.0000	4.14486	610.54
190.9000	4.91434	617.22
190.8000	5.823	624.224
190.7000	5.1556	631.313
190.6000	5.49649	638.38
190.5000	5.52127	645.134
190.4000	5.86492	651.272
190.3000	6.84787	656.63
190.2000	8.20003	661.187
190.1000	7.64503	664.937
190.0000	6.9369	668.066

##### Extended Information
[Comments]
Sample name	ACE2_Erg_0.6uM
Comment
User
Division
Company	CSIR-IMTECH

[Detailed Information]
Creation date	4/9/2024 2:43 PM

Data array type	Linear data array * 2
Horizontal axis	Wavelength [nm]
Vertical axis(1)	CD [mdeg]
Vertical axis(2)	HT [V]
Start	350 nm
End	190 nm
Data interval	0.1 nm
Data points	1601    

[Measurement Information]
Instrument Name	JASCO CD
Model Name	J-815
Serial No.	B063061168

Accessory	PTC-423S
Accessory S/N	C013945-01
  Temperature	37.00 C
  Control Sonsor	Cell
  Monitor Sensor	Cell
  Start Mode	Start immediately
  Cell Length	10 mm

Measurement date	4/9/2024 2:43 PM

Photometric Mode	CD, HT
Measure Range	350 - 190 nm
Data pitch	0.1 nm
Sensitivity	Standard
D.I.T.	1 sec
Bandwidth	1.00 nm
Start Mode	Immediately
Scanning Speed	50 nm/min
Baseline Correction	None
Shutter Control	Auto
CD Detector	PMT
PMT Voltage	Auto
Accumulations	3
Concentration	0.27 umol/L

