TITLE	ACE2
DATA TYPE	
ORIGIN	JASCO
OWNER	
DATE	24/04/08
TIME	17:55:49
SPECTROMETER/DATA SYSTEM	
LOCALE	1033
RESOLUTION	
DELTAX	-0.1
XUNITS	NANOMETERS
YUNITS	CD [mdeg]
Y2UNITS	HT [V]
FIRSTX	  350.0000
LASTX	  190.0000
NPOINTS	    1601
FIRSTY	    -0.83512
MAXY	     6.35390
MINY	    -2.47106
XYDATA
350.0000	-0.835121	480.564
349.9000	-0.970551	479.961
349.8000	-1.01032	479.065
349.7000	-0.837849	478.168
349.6000	-0.564236	477.539
349.5000	-0.472902	476.989
349.4000	-0.525261	476.131
349.3000	-0.43496	475.522
349.2000	-0.181832	475.007
349.1000	-0.0813131	474.177
349.0000	-0.0538651	473.559
348.9000	-0.188594	473.011
348.8000	-0.335375	472.167
348.7000	-0.388793	471.312
348.6000	-0.563408	470.693
348.5000	-0.643412	470.163
348.4000	-0.915247	469.292
348.3000	-0.970742	468.648
348.2000	-0.936799	468.087
348.1000	-0.8691	467.247
348.0000	-0.995508	466.607
347.9000	-1.11123	466.044
347.8000	-0.700542	465.222
347.7000	-0.476694	464.379
347.6000	-0.303988	463.783
347.5000	-0.29615	463.285
347.4000	-0.458526	462.504
347.3000	-0.719025	461.913
347.2000	-0.785468	461.415
347.1000	-0.75875	460.668
347.0000	-0.861666	460.114
346.9000	-0.964009	459.637
346.8000	-0.994944	458.89
346.7000	-0.827386	458.137
346.6000	-0.617617	457.578
346.5000	-0.469819	456.827
346.4000	-0.225842	456.066
346.3000	-0.0826899	455.477
346.2000	-0.00409031	454.709
346.1000	0.190504	453.929
346.0000	0.345958	453.348
345.9000	0.508809	452.848
345.8000	0.511417	452.064
345.7000	0.43915	451.485
345.6000	0.174761	450.985
345.5000	0.0269576	450.279
345.4000	-0.106911	449.766
345.3000	-0.277121	449.33
345.2000	-0.404698	448.639
345.1000	-0.433006	447.94
345.0000	-0.574464	447.427
344.9000	-0.421041	446.787
344.8000	-0.0966239	446.138
344.7000	-0.0776242	445.622
344.6000	0.0204802	444.947
344.5000	0.209232	444.264
344.4000	0.33718	443.755
344.3000	0.350859	443.098
344.2000	0.448037	442.435
344.1000	0.633241	441.939
344.0000	0.564267	441.289
343.9000	0.591136	440.638
343.8000	0.699079	440.172
343.7000	0.633217	439.767
343.6000	0.466233	439.143
343.5000	0.12823	438.682
343.4000	-0.287487	438.284
343.3000	-0.671806	437.638
343.2000	-0.792639	437.164
343.1000	-0.822975	436.755
343.0000	-0.860582	436.173
342.9000	-0.940211	435.577
342.8000	-0.827416	435.134
342.7000	-0.725553	434.524
342.6000	-0.425064	433.915
342.5000	-0.253901	433.471
342.4000	-0.222628	432.924
342.3000	-0.196787	432.361
342.2000	-0.261653	431.918
342.1000	-0.301125	431.335
342.0000	-0.292843	430.751
341.9000	-0.268139	430.339
341.8000	-0.184458	429.799
341.7000	-0.1955	429.246
341.6000	-0.11954	428.834
341.5000	-0.215772	428.297
341.4000	-0.267568	427.755
341.3000	-0.179464	427.359
341.2000	-0.083509	426.814
341.1000	-0.0507723	426.26
341.0000	-0.0664039	425.849
340.9000	-0.14756	425.31
340.8000	-0.139446	424.761
340.7000	-0.0682722	424.344
340.6000	0.0963188	423.827
340.5000	0.0577776	423.299
340.4000	0.0807965	422.916
340.3000	0.0181352	422.393
340.2000	-0.111403	421.855
340.1000	-0.0400709	421.467
340.0000	0.0716656	420.99
339.9000	0.119487	420.503
339.8000	0.0434907	420.129
339.7000	0.0834692	419.65
339.6000	0.116292	419.166
339.5000	-0.0109929	418.825
339.4000	-0.0368682	418.375
339.3000	-0.100352	417.903
339.2000	-0.123442	417.394
339.1000	-0.170849	416.937
339.0000	-0.108647	416.468
338.9000	-0.208013	415.935
338.8000	-0.336271	415.445
338.7000	-0.367646	414.95
338.6000	-0.313138	414.416
338.5000	-0.107311	413.955
338.4000	-0.125094	413.602
338.3000	-0.118272	413.155
338.2000	-0.295603	412.697
338.1000	-0.303174	412.372
338.0000	-0.172119	411.955
337.9000	-0.279493	411.526
337.8000	-0.257636	411.227
337.7000	-0.350445	410.831
337.6000	-0.354786	410.422
337.5000	-0.460595	410.111
337.4000	-0.431202	409.722
337.3000	-0.482985	409.318
337.2000	-0.523467	408.863
337.1000	-0.47787	408.456
337.0000	-0.434436	408.035
336.9000	-0.456939	407.582
336.8000	-0.447056	407.181
336.7000	-0.431672	406.779
336.6000	-0.364368	406.332
336.5000	-0.299805	405.921
336.4000	-0.229378	405.629
336.3000	-0.201788	405.225
336.2000	-0.141999	404.817
336.1000	-0.012502	404.511
336.0000	-0.0309219	404.143
335.9000	-0.0366831	403.762
335.8000	0.0012965	403.338
335.7000	0.0220113	402.959
335.6000	0.0634272	402.575
335.5000	0.0706889	402.177
335.4000	0.0264022	401.836
335.3000	0.107254	401.495
335.2000	0.0422164	401.116
335.1000	0.0826822	400.774
335.0000	0.0814783	400.544
334.9000	0.0924214	400.225
334.8000	0.123634	399.891
334.7000	0.098536	399.524
334.6000	0.0798699	399.202
334.5000	0.112555	398.873
334.4000	0.13159	398.486
334.3000	0.173863	398.131
334.2000	0.0624047	397.762
334.1000	-0.0649966	397.355
334.0000	-0.17739	396.998
333.9000	-0.256595	396.739
333.8000	-0.183103	396.415
333.7000	-0.25259	396.077
333.6000	-0.311649	395.704
333.5000	-0.400506	395.379
333.4000	-0.384479	395.053
333.3000	-0.352233	394.708
333.2000	-0.24303	394.411
333.1000	-0.14605	394.103
333.0000	-0.209166	393.767
332.9000	-0.223832	393.466
332.8000	-0.203244	393.128
332.7000	-0.102432	392.836
332.6000	-0.133117	392.532
332.5000	-0.194005	392.198
332.4000	-0.203281	391.909
332.3000	-0.365703	391.611
332.2000	-0.394136	391.276
332.1000	-0.343783	390.968
332.0000	-0.400107	390.633
331.9000	-0.575088	390.343
331.8000	-0.69604	390.052
331.7000	-0.747653	389.727
331.6000	-0.809571	389.43
331.5000	-0.729915	389.019
331.4000	-0.65813	388.693
331.3000	-0.580017	388.407
331.2000	-0.582145	388.091
331.1000	-0.511412	387.816
331.0000	-0.409204	387.536
330.9000	-0.255432	387.248
330.8000	-0.106168	386.997
330.7000	-0.0317207	386.714
330.6000	-0.0387942	386.468
330.5000	-0.148821	386.213
330.4000	-0.177733	385.927
330.3000	-0.260492	385.671
330.2000	-0.326578	385.31
330.1000	-0.323532	385.016
330.0000	-0.402682	384.749
329.9000	-0.503306	384.454
329.8000	-0.621549	384.188
329.7000	-0.647786	383.845
329.6000	-0.604294	383.587
329.5000	-0.529076	383.369
329.4000	-0.48528	383.087
329.3000	-0.395704	382.837
329.2000	-0.383249	382.487
329.1000	-0.371532	382.216
329.0000	-0.387948	381.977
328.9000	-0.518984	381.693
328.8000	-0.690281	381.427
328.7000	-0.827593	381.082
328.6000	-0.855333	380.835
328.5000	-0.887041	380.634
328.4000	-0.900354	380.371
328.3000	-0.861616	380.134
328.2000	-0.853344	379.848
328.1000	-0.641704	379.643
328.0000	-0.46669	379.469
327.9000	-0.334823	379.216
327.8000	-0.253336	378.983
327.7000	-0.212696	378.718
327.6000	-0.153767	378.55
327.5000	-0.0659365	378.427
327.4000	0.120978	378.168
327.3000	0.11367	377.905
327.2000	0.135009	377.594
327.1000	0.124936	377.377
327.0000	0.153496	377.208
326.9000	0.0773282	376.936
326.8000	-0.0154763	376.657
326.7000	-0.123617	376.341
326.6000	-0.249409	376.152
326.5000	-0.341234	376.025
326.4000	-0.340948	375.779
326.3000	-0.288228	375.538
326.2000	-0.376721	375.275
326.1000	-0.386943	375.101
326.0000	-0.254982	374.807
325.9000	-0.265796	374.527
325.8000	-0.272982	374.253
325.7000	-0.331714	373.992
325.6000	-0.406793	373.841
325.5000	-0.546738	373.542
325.4000	-0.623169	373.247
325.3000	-0.698221	372.949
325.2000	-0.763273	372.78
325.1000	-0.693911	372.679
325.0000	-0.629669	372.414
324.9000	-0.495773	372.137
324.8000	-0.386831	371.846
324.7000	-0.351567	371.702
324.6000	-0.408745	371.63
324.5000	-0.401304	371.378
324.4000	-0.338087	371.113
324.3000	-0.376529	370.855
324.2000	-0.400675	370.712
324.1000	-0.486004	370.439
324.0000	-0.473295	370.161
323.9000	-0.517935	369.873
323.8000	-0.450426	369.616
323.7000	-0.287955	369.492
323.6000	-0.270724	369.23
323.5000	-0.223811	368.948
323.4000	-0.247304	368.67
323.3000	-0.285792	368.53
323.2000	-0.360049	368.453
323.1000	-0.32839	368.215
323.0000	-0.22808	367.953
322.9000	-0.214413	367.678
322.8000	-0.259443	367.538
322.7000	-0.244538	367.296
322.6000	-0.198084	367.029
322.5000	-0.18696	366.749
322.4000	-0.14299	366.469
322.3000	-0.0793131	366.294
322.2000	-0.0819259	365.994
322.1000	-0.0673889	365.676
322.0000	-0.10056	365.363
321.9000	-0.133918	365.175
321.8000	-0.176782	364.893
321.7000	-0.207899	364.603
321.6000	-0.227695	364.309
321.5000	-0.329377	364.03
321.4000	-0.378518	363.891
321.3000	-0.501065	363.691
321.2000	-0.554821	363.488
321.1000	-0.613236	363.277
321.0000	-0.743998	363.19
320.9000	-0.773215	363.037
320.8000	-0.704178	362.89
320.7000	-0.708018	362.747
320.6000	-0.728228	362.605
320.5000	-0.674234	362.56
320.4000	-0.526024	362.402
320.3000	-0.446689	362.237
320.2000	-0.330766	362.08
320.1000	-0.184634	362.024
320.0000	-0.145711	361.869
319.9000	-0.155725	361.7
319.8000	-0.119442	361.513
319.7000	-0.0869591	361.315
319.6000	-0.179141	361.1
319.5000	-0.348073	360.935
319.4000	-0.46951	360.758
319.3000	-0.569361	360.547
319.2000	-0.670013	360.43
319.1000	-0.755236	360.229
319.0000	-0.774081	360.026
318.9000	-0.89051	359.816
318.8000	-0.943098	359.691
318.7000	-0.870094	359.468
318.6000	-0.706167	359.245
318.5000	-0.621658	359.045
318.4000	-0.594808	358.848
318.3000	-0.59749	358.627
318.2000	-0.656782	358.454
318.1000	-0.599949	358.286
318.0000	-0.550546	358.105
317.9000	-0.535949	358.029
317.8000	-0.52689	357.908
317.7000	-0.521975	357.772
317.6000	-0.547638	357.594
317.5000	-0.526516	357.499
317.4000	-0.467061	357.346
317.3000	-0.474248	357.185
317.2000	-0.47031	357.005
317.1000	-0.480816	356.821
317.0000	-0.465402	356.585
316.9000	-0.407633	356.383
316.8000	-0.36254	356.194
316.7000	-0.359682	356.004
316.6000	-0.43561	355.81
316.5000	-0.43828	355.644
316.4000	-0.404838	355.471
316.3000	-0.427505	355.301
316.2000	-0.400218	355.137
316.1000	-0.387418	355.014
316.0000	-0.439139	354.899
315.9000	-0.458447	354.749
315.8000	-0.379481	354.652
315.7000	-0.320041	354.491
315.6000	-0.39325	354.347
315.5000	-0.395036	354.175
315.4000	-0.400456	354.063
315.3000	-0.540562	353.865
315.2000	-0.569193	353.658
315.1000	-0.545668	353.468
315.0000	-0.556024	353.287
314.9000	-0.544601	353.106
314.8000	-0.48532	352.953
314.7000	-0.453419	352.793
314.6000	-0.483696	352.635
314.5000	-0.442181	352.491
314.4000	-0.415943	352.385
314.3000	-0.472333	352.251
314.2000	-0.491907	352.117
314.1000	-0.506077	351.944
314.0000	-0.574162	351.786
313.9000	-0.624509	351.619
313.8000	-0.641293	351.464
313.7000	-0.631611	351.251
313.6000	-0.633274	351.052
313.5000	-0.649127	350.863
313.4000	-0.632991	350.686
313.3000	-0.675651	350.515
313.2000	-0.691009	350.375
313.1000	-0.666914	350.23
313.0000	-0.610882	350.088
312.9000	-0.495006	349.96
312.8000	-0.439292	349.869
312.7000	-0.435635	349.742
312.6000	-0.478745	349.618
312.5000	-0.426736	349.459
312.4000	-0.419347	349.311
312.3000	-0.503746	349.141
312.2000	-0.607115	348.972
312.1000	-0.67737	348.752
312.0000	-0.73834	348.546
311.9000	-0.743881	348.347
311.8000	-0.730725	348.117
311.7000	-0.785808	347.933
311.6000	-0.785342	347.737
311.5000	-0.670288	347.575
311.4000	-0.570952	347.378
311.3000	-0.534465	347.247
311.2000	-0.525823	347.115
311.1000	-0.556867	347.006
311.0000	-0.504391	346.889
310.9000	-0.427572	346.79
310.8000	-0.350662	346.68
310.7000	-0.26473	346.589
310.6000	-0.251666	346.466
310.5000	-0.277217	346.363
310.4000	-0.332069	346.264
310.3000	-0.232443	346.178
310.2000	-0.255623	346.094
310.1000	-0.357485	346.024
310.0000	-0.381702	345.947
309.9000	-0.390316	345.882
309.8000	-0.409029	345.82
309.7000	-0.394527	345.723
309.6000	-0.397842	345.644
309.5000	-0.480332	345.528
309.4000	-0.429915	345.435
309.3000	-0.360718	345.297
309.2000	-0.380974	345.184
309.1000	-0.441852	345.018
309.0000	-0.501462	344.879
308.9000	-0.438172	344.76
308.8000	-0.358924	344.65
308.7000	-0.277123	344.549
308.6000	-0.290236	344.458
308.5000	-0.331931	344.356
308.4000	-0.273161	344.25
308.3000	-0.244418	344.187
308.2000	-0.222665	344.083
308.1000	-0.232697	343.999
308.0000	-0.26476	343.899
307.9000	-0.317494	343.815
307.8000	-0.312019	343.681
307.7000	-0.347851	343.574
307.6000	-0.350384	343.46
307.5000	-0.330058	343.301
307.4000	-0.241923	343.187
307.3000	-0.184383	343.079
307.2000	-0.166155	342.991
307.1000	-0.165274	342.859
307.0000	-0.151555	342.763
306.9000	-0.15963	342.671
306.8000	-0.154263	342.61
306.7000	-0.198373	342.538
306.6000	-0.351802	342.442
306.5000	-0.516146	342.358
306.4000	-0.688985	342.228
306.3000	-0.742936	342.138
306.2000	-0.766696	342.025
306.1000	-0.809851	341.924
306.0000	-0.794685	341.782
305.9000	-0.792201	341.678
305.8000	-0.780174	341.6
305.7000	-0.711493	341.486
305.6000	-0.616513	341.407
305.5000	-0.570706	341.324
305.4000	-0.522464	341.274
305.3000	-0.480159	341.181
305.2000	-0.461029	341.118
305.1000	-0.506171	341.035
305.0000	-0.554646	340.918
304.9000	-0.601998	340.839
304.8000	-0.63478	340.739
304.7000	-0.589019	340.656
304.6000	-0.620009	340.533
304.5000	-0.649218	340.428
304.4000	-0.721237	340.338
304.3000	-0.790624	340.223
304.2000	-0.818821	340.156
304.1000	-0.81989	340.091
304.0000	-0.815676	340.054
303.9000	-0.86378	339.966
303.8000	-0.924705	339.882
303.7000	-0.951761	339.832
303.6000	-0.974562	339.731
303.5000	-0.931715	339.663
303.4000	-0.92118	339.579
303.3000	-0.928449	339.465
303.2000	-0.91356	339.357
303.1000	-0.887267	339.268
303.0000	-0.895429	339.214
302.9000	-0.901789	339.12
302.8000	-0.88666	339.042
302.7000	-0.862949	338.983
302.6000	-0.782677	338.898
302.5000	-0.617278	338.855
302.4000	-0.553277	338.8
302.3000	-0.54591	338.707
302.2000	-0.513455	338.622
302.1000	-0.482646	338.537
302.0000	-0.471928	338.482
301.9000	-0.430459	338.4
301.8000	-0.418698	338.327
301.7000	-0.500293	338.266
301.6000	-0.619347	338.175
301.5000	-0.675999	338.125
301.4000	-0.669269	338.073
301.3000	-0.666281	337.995
301.2000	-0.665838	337.926
301.1000	-0.71093	337.862
301.0000	-0.753397	337.831
300.9000	-0.760712	337.759
300.8000	-0.730567	337.684
300.7000	-0.673683	337.625
300.6000	-0.695809	337.549
300.5000	-0.700596	337.487
300.4000	-0.678536	337.439
300.3000	-0.676306	337.366
300.2000	-0.702471	337.293
300.1000	-0.734095	337.233
300.0000	-0.776328	337.169
299.9000	-0.809776	337.117
299.8000	-0.850379	337.064
299.7000	-0.887447	336.998
299.6000	-0.926182	336.944
299.5000	-0.904315	336.887
299.4000	-0.831816	336.843
299.3000	-0.851071	336.778
299.2000	-0.792701	336.732
299.1000	-0.769798	336.693
299.0000	-0.698135	336.634
298.9000	-0.670223	336.586
298.8000	-0.616535	336.55
298.7000	-0.547122	336.496
298.6000	-0.569111	336.444
298.5000	-0.56081	336.393
298.4000	-0.598635	336.329
298.3000	-0.563667	336.269
298.2000	-0.537828	336.21
298.1000	-0.523746	336.149
298.0000	-0.523279	336.095
297.9000	-0.595792	336.041
297.8000	-0.640258	335.973
297.7000	-0.57292	335.926
297.6000	-0.508159	335.891
297.5000	-0.551187	335.831
297.4000	-0.649199	335.785
297.3000	-0.699973	335.744
297.2000	-0.74205	335.677
297.1000	-0.774109	335.626
297.0000	-0.766711	335.579
296.9000	-0.758866	335.508
296.8000	-0.79595	335.448
296.7000	-0.793756	335.402
296.6000	-0.739236	335.369
296.5000	-0.725529	335.324
296.4000	-0.741081	335.288
296.3000	-0.729676	335.262
296.2000	-0.742774	335.224
296.1000	-0.787825	335.188
296.0000	-0.909926	335.158
295.9000	-0.975084	335.113
295.8000	-0.980057	335.05
295.7000	-0.964293	335.008
295.6000	-0.913592	334.966
295.5000	-0.894301	334.903
295.4000	-0.874776	334.834
295.3000	-0.874491	334.791
295.2000	-0.846647	334.737
295.1000	-0.808466	334.673
295.0000	-0.762051	334.641
294.9000	-0.806756	334.591
294.8000	-0.812325	334.524
294.7000	-0.760676	334.486
294.6000	-0.745619	334.451
294.5000	-0.726044	334.398
294.4000	-0.67479	334.361
294.3000	-0.639613	334.331
294.2000	-0.571815	334.283
294.1000	-0.484378	334.248
294.0000	-0.475944	334.226
293.9000	-0.52738	334.179
293.8000	-0.554771	334.148
293.7000	-0.570291	334.127
293.6000	-0.530879	334.083
293.5000	-0.488727	334.026
293.4000	-0.524423	333.999
293.3000	-0.595158	333.952
293.2000	-0.589783	333.898
293.1000	-0.505597	333.879
293.0000	-0.517822	333.834
292.9000	-0.518638	333.784
292.8000	-0.535389	333.764
292.7000	-0.562204	333.738
292.6000	-0.601781	333.698
292.5000	-0.628361	333.647
292.4000	-0.685911	333.619
292.3000	-0.750659	333.574
292.2000	-0.723919	333.527
292.1000	-0.650215	333.504
292.0000	-0.686148	333.459
291.9000	-0.665266	333.406
291.8000	-0.665531	333.357
291.7000	-0.686148	333.332
291.6000	-0.75508	333.283
291.5000	-0.758113	333.232
291.4000	-0.802055	333.206
291.3000	-0.868386	333.152
291.2000	-0.885957	333.087
291.1000	-0.894098	333.025
291.0000	-0.919161	332.979
290.9000	-0.875609	332.912
290.8000	-0.786647	332.828
290.7000	-0.754399	332.732
290.6000	-0.783934	332.624
290.5000	-0.852085	332.493
290.4000	-0.869226	332.359
290.3000	-0.871649	332.24
290.2000	-0.874817	332.097
290.1000	-0.866123	331.946
290.0000	-0.875427	331.807
289.9000	-0.918188	331.704
289.8000	-0.924061	331.614
289.7000	-0.796002	331.549
289.6000	-0.686429	331.521
289.5000	-0.645176	331.532
289.4000	-0.587747	331.57
289.3000	-0.497233	331.641
289.2000	-0.492994	331.729
289.1000	-0.448631	331.842
289.0000	-0.333349	331.95
288.9000	-0.294344	332.055
288.8000	-0.305558	332.151
288.7000	-0.289829	332.239
288.6000	-0.321618	332.299
288.5000	-0.378098	332.342
288.4000	-0.38945	332.371
288.3000	-0.43412	332.387
288.2000	-0.507772	332.382
288.1000	-0.606644	332.371
288.0000	-0.629827	332.35
287.9000	-0.669779	332.312
287.8000	-0.680858	332.29
287.7000	-0.723212	332.262
287.6000	-0.731906	332.239
287.5000	-0.684674	332.208
287.4000	-0.657785	332.191
287.3000	-0.634987	332.178
287.2000	-0.621857	332.161
287.1000	-0.618825	332.149
287.0000	-0.642062	332.11
286.9000	-0.62486	332.09
286.8000	-0.585096	332.077
286.7000	-0.610549	332.062
286.6000	-0.67287	332.036
286.5000	-0.723891	332.02
286.4000	-0.734587	332.013
286.3000	-0.783963	332.005
286.2000	-0.778676	331.999
286.1000	-0.757823	331.99
286.0000	-0.751707	331.994
285.9000	-0.740294	331.987
285.8000	-0.695344	331.985
285.7000	-0.71274	331.961
285.6000	-0.713463	331.939
285.5000	-0.712583	331.939
285.4000	-0.662355	331.943
285.3000	-0.615799	331.949
285.2000	-0.621946	331.922
285.1000	-0.671204	331.904
285.0000	-0.716889	331.909
284.9000	-0.693845	331.906
284.8000	-0.650223	331.908
284.7000	-0.610368	331.885
284.6000	-0.627519	331.868
284.5000	-0.671002	331.87
284.4000	-0.724499	331.872
284.3000	-0.779827	331.879
284.2000	-0.768034	331.86
284.1000	-0.808241	331.85
284.0000	-0.865754	331.83
283.9000	-0.89564	331.833
283.8000	-0.925214	331.843
283.7000	-0.908288	331.828
283.6000	-0.876732	331.82
283.5000	-0.803242	331.815
283.4000	-0.772211	331.813
283.3000	-0.677565	331.83
283.2000	-0.618226	331.849
283.1000	-0.575807	331.856
283.0000	-0.561815	331.844
282.9000	-0.607464	331.836
282.8000	-0.633474	331.827
282.7000	-0.658491	331.836
282.6000	-0.650894	331.847
282.5000	-0.684668	331.848
282.4000	-0.727697	331.841
282.3000	-0.706398	331.836
282.2000	-0.711284	331.837
282.1000	-0.720889	331.86
282.0000	-0.654535	331.884
281.9000	-0.664364	331.889
281.8000	-0.695919	331.886
281.7000	-0.708978	331.88
281.6000	-0.718851	331.879
281.5000	-0.69175	331.88
281.4000	-0.643706	331.902
281.3000	-0.617455	331.907
281.2000	-0.596038	331.905
281.1000	-0.539308	331.905
281.0000	-0.522914	331.901
280.9000	-0.527111	331.897
280.8000	-0.506976	331.89
280.7000	-0.502019	331.887
280.6000	-0.539258	331.886
280.5000	-0.551827	331.878
280.4000	-0.548426	331.872
280.3000	-0.56395	331.861
280.2000	-0.584116	331.851
280.1000	-0.587334	331.841
280.0000	-0.594876	331.833
279.9000	-0.616606	331.824
279.8000	-0.627542	331.801
279.7000	-0.616068	331.793
279.6000	-0.601831	331.786
279.5000	-0.630529	331.784
279.4000	-0.584816	331.786
279.3000	-0.564669	331.786
279.2000	-0.59523	331.787
279.1000	-0.644188	331.789
279.0000	-0.664278	331.793
278.9000	-0.742388	331.786
278.8000	-0.813728	331.795
278.7000	-0.823293	331.807
278.6000	-0.938972	331.817
278.5000	-1.00375	331.832
278.4000	-0.974916	331.845
278.3000	-0.887462	331.861
278.2000	-0.82967	331.876
278.1000	-0.797207	331.888
278.0000	-0.776898	331.883
277.9000	-0.820264	331.869
277.8000	-0.815797	331.854
277.7000	-0.759787	331.846
277.6000	-0.768784	331.86
277.5000	-0.711701	331.876
277.4000	-0.686588	331.891
277.3000	-0.625844	331.911
277.2000	-0.575887	331.928
277.1000	-0.525282	331.946
277.0000	-0.449281	331.967
276.9000	-0.447244	331.985
276.8000	-0.463041	331.985
276.7000	-0.493196	331.979
276.6000	-0.543427	331.975
276.5000	-0.595868	331.972
276.4000	-0.613007	331.974
276.3000	-0.570419	331.985
276.2000	-0.573405	331.992
276.1000	-0.539288	332.001
276.0000	-0.492405	332.029
275.9000	-0.516007	332.055
275.8000	-0.56626	332.084
275.7000	-0.622261	332.109
275.6000	-0.725216	332.133
275.5000	-0.762698	332.152
275.4000	-0.798633	332.17
275.3000	-0.786524	332.192
275.2000	-0.764591	332.205
275.1000	-0.745436	332.213
275.0000	-0.746444	332.217
274.9000	-0.695755	332.222
274.8000	-0.637305	332.229
274.7000	-0.579195	332.236
274.6000	-0.524748	332.247
274.5000	-0.503707	332.262
274.4000	-0.531061	332.268
274.3000	-0.511283	332.28
274.2000	-0.501432	332.292
274.1000	-0.50706	332.308
274.0000	-0.497174	332.321
273.9000	-0.58384	332.336
273.8000	-0.665295	332.354
273.7000	-0.758802	332.37
273.6000	-0.805619	332.389
273.5000	-0.831221	332.408
273.4000	-0.767875	332.423
273.3000	-0.797011	332.438
273.2000	-0.769269	332.46
273.1000	-0.697658	332.48
273.0000	-0.581383	332.494
272.9000	-0.48445	332.506
272.8000	-0.422781	332.517
272.7000	-0.469414	332.524
272.6000	-0.576305	332.538
272.5000	-0.605177	332.557
272.4000	-0.543228	332.574
272.3000	-0.572727	332.586
272.2000	-0.652172	332.603
272.1000	-0.696874	332.624
272.0000	-0.721051	332.646
271.9000	-0.713338	332.669
271.8000	-0.655944	332.693
271.7000	-0.595695	332.718
271.6000	-0.578492	332.74
271.5000	-0.599892	332.763
271.4000	-0.558526	332.783
271.3000	-0.54917	332.794
271.2000	-0.575232	332.801
271.1000	-0.499557	332.809
271.0000	-0.451601	332.81
270.9000	-0.466885	332.787
270.8000	-0.538556	332.761
270.7000	-0.556651	332.74
270.6000	-0.580056	332.721
270.5000	-0.584826	332.705
270.4000	-0.538985	332.698
270.3000	-0.568405	332.687
270.2000	-0.626322	332.68
270.1000	-0.651052	332.685
270.0000	-0.634024	332.697
269.9000	-0.625923	332.714
269.8000	-0.634662	332.728
269.7000	-0.630174	332.749
269.6000	-0.607992	332.774
269.5000	-0.624834	332.793
269.4000	-0.579525	332.805
269.3000	-0.567325	332.824
269.2000	-0.573899	332.847
269.1000	-0.606149	332.869
269.0000	-0.528916	332.89
268.9000	-0.440854	332.916
268.8000	-0.520787	332.933
268.7000	-0.554175	332.967
268.6000	-0.541162	333.014
268.5000	-0.46401	333.076
268.4000	-0.44532	333.129
268.3000	-0.453657	333.165
268.2000	-0.504305	333.208
268.1000	-0.596846	333.245
268.0000	-0.608595	333.293
267.9000	-0.591403	333.333
267.8000	-0.607329	333.376
267.7000	-0.676631	333.404
267.6000	-0.70123	333.438
267.5000	-0.724929	333.483
267.4000	-0.639941	333.528
267.3000	-0.610516	333.582
267.2000	-0.610741	333.626
267.1000	-0.691573	333.677
267.0000	-0.752487	333.724
266.9000	-0.766321	333.777
266.8000	-0.739195	333.828
266.7000	-0.713748	333.868
266.6000	-0.738402	333.917
266.5000	-0.778238	333.968
266.4000	-0.730853	334.033
266.3000	-0.670285	334.091
266.2000	-0.602515	334.141
266.1000	-0.579048	334.189
266.0000	-0.642039	334.224
265.9000	-0.682478	334.277
265.8000	-0.663756	334.337
265.7000	-0.607736	334.401
265.6000	-0.529631	334.461
265.5000	-0.482356	334.524
265.4000	-0.437377	334.584
265.3000	-0.392096	334.642
265.2000	-0.335004	334.712
265.1000	-0.289783	334.781
265.0000	-0.252826	334.847
264.9000	-0.321217	334.912
264.8000	-0.418897	334.957
264.7000	-0.498033	334.999
264.6000	-0.538863	335.048
264.5000	-0.609987	335.103
264.4000	-0.655899	335.163
264.3000	-0.673749	335.212
264.2000	-0.740756	335.265
264.1000	-0.762605	335.32
264.0000	-0.779429	335.384
263.9000	-0.776808	335.46
263.8000	-0.753343	335.532
263.7000	-0.761714	335.607
263.6000	-0.734309	335.683
263.5000	-0.721269	335.77
263.4000	-0.678549	335.857
263.3000	-0.619249	335.923
263.2000	-0.561296	335.996
263.1000	-0.573476	336.066
263.0000	-0.585854	336.136
262.9000	-0.551407	336.199
262.8000	-0.499806	336.266
262.7000	-0.453769	336.327
262.6000	-0.46148	336.389
262.5000	-0.505878	336.471
262.4000	-0.542586	336.548
262.3000	-0.447357	336.627
262.2000	-0.386112	336.703
262.1000	-0.33785	336.792
262.0000	-0.289	336.865
261.9000	-0.309851	336.943
261.8000	-0.270198	337.023
261.7000	-0.203091	337.088
261.6000	-0.162773	337.153
261.5000	-0.205208	337.224
261.4000	-0.267302	337.3
261.3000	-0.354202	337.359
261.2000	-0.417611	337.429
261.1000	-0.47399	337.512
261.0000	-0.591582	337.596
260.9000	-0.645508	337.678
260.8000	-0.615021	337.768
260.7000	-0.563827	337.848
260.6000	-0.60716	337.903
260.5000	-0.607197	337.966
260.4000	-0.632386	338.047
260.3000	-0.591025	338.13
260.2000	-0.469302	338.197
260.1000	-0.40374	338.27
260.0000	-0.488107	338.345
259.9000	-0.545508	338.414
259.8000	-0.500594	338.517
259.7000	-0.432911	338.631
259.6000	-0.372374	338.725
259.5000	-0.310728	338.808
259.4000	-0.293362	338.895
259.3000	-0.317299	338.977
259.2000	-0.304071	339.07
259.1000	-0.371376	339.172
259.0000	-0.409418	339.263
258.9000	-0.372059	339.349
258.8000	-0.361474	339.441
258.7000	-0.425957	339.518
258.6000	-0.55312	339.595
258.5000	-0.5979	339.688
258.4000	-0.567656	339.773
258.3000	-0.460246	339.854
258.2000	-0.362155	339.944
258.1000	-0.307212	340.03
258.0000	-0.343405	340.118
257.9000	-0.312885	340.219
257.8000	-0.234422	340.318
257.7000	-0.129808	340.413
257.6000	-0.112844	340.506
257.5000	-0.131703	340.593
257.4000	-0.197786	340.682
257.3000	-0.335914	340.759
257.2000	-0.470225	340.841
257.1000	-0.502625	340.935
257.0000	-0.547971	341.027
256.9000	-0.59984	341.116
256.8000	-0.613497	341.197
256.7000	-0.645666	341.284
256.6000	-0.628021	341.374
256.5000	-0.545876	341.467
256.4000	-0.485664	341.558
256.3000	-0.47334	341.633
256.2000	-0.479243	341.714
256.1000	-0.493657	341.807
256.0000	-0.60892	341.89
255.9000	-0.6401	341.98
255.8000	-0.665859	342.062
255.7000	-0.704088	342.147
255.6000	-0.66559	342.233
255.5000	-0.66919	342.31
255.4000	-0.701444	342.389
255.3000	-0.735637	342.454
255.2000	-0.737229	342.531
255.1000	-0.699945	342.603
255.0000	-0.724032	342.687
254.9000	-0.743948	342.767
254.8000	-0.788847	342.85
254.7000	-0.807241	342.944
254.6000	-0.727524	343.042
254.5000	-0.679423	343.137
254.4000	-0.619878	343.22
254.3000	-0.566458	343.308
254.2000	-0.531107	343.383
254.1000	-0.456177	343.462
254.0000	-0.477441	343.533
253.9000	-0.465213	343.609
253.8000	-0.506725	343.672
253.7000	-0.469194	343.739
253.6000	-0.447578	343.811
253.5000	-0.484995	343.892
253.4000	-0.467741	343.973
253.3000	-0.470804	344.056
253.2000	-0.426219	344.142
253.1000	-0.325977	344.24
253.0000	-0.25177	344.341
252.9000	-0.207018	344.449
252.8000	-0.130177	344.559
252.7000	-0.108395	344.667
252.6000	-0.0741451	344.769
252.5000	-0.0338838	344.869
252.4000	-0.0469184	344.96
252.3000	-0.0281405	345.053
252.2000	-0.0601763	345.137
252.1000	-0.117769	345.224
252.0000	-0.231671	345.305
251.9000	-0.308898	345.367
251.8000	-0.432532	345.434
251.7000	-0.619201	345.499
251.6000	-0.742847	345.571
251.5000	-0.834901	345.631
251.4000	-0.879397	345.705
251.3000	-0.952406	345.779
251.2000	-0.994671	345.85
251.1000	-0.913345	345.942
251.0000	-0.834125	346.035
250.9000	-0.669002	346.138
250.8000	-0.581057	346.239
250.7000	-0.549208	346.356
250.6000	-0.553454	346.462
250.5000	-0.565474	346.557
250.4000	-0.587643	346.661
250.3000	-0.651598	346.76
250.2000	-0.707546	346.859
250.1000	-0.738991	346.945
250.0000	-0.741371	347.023
249.9000	-0.738637	347.093
249.8000	-0.733601	347.162
249.7000	-0.733886	347.244
249.6000	-0.681914	347.327
249.5000	-0.624014	347.411
249.4000	-0.617	347.503
249.3000	-0.615786	347.599
249.2000	-0.505729	347.702
249.1000	-0.491142	347.808
249.0000	-0.445266	347.916
248.9000	-0.434668	348.015
248.8000	-0.407959	348.112
248.7000	-0.359276	348.203
248.6000	-0.306672	348.291
248.5000	-0.275755	348.389
248.4000	-0.241703	348.485
248.3000	-0.219283	348.569
248.2000	-0.224839	348.655
248.1000	-0.252788	348.737
248.0000	-0.176862	348.816
247.9000	-0.23484	348.901
247.8000	-0.267519	348.987
247.7000	-0.319422	349.068
247.6000	-0.362034	349.156
247.5000	-0.431968	349.248
247.4000	-0.482757	349.342
247.3000	-0.424738	349.435
247.2000	-0.487667	349.527
247.1000	-0.53252	349.61
247.0000	-0.531928	349.693
246.9000	-0.47028	349.783
246.8000	-0.464377	349.863
246.7000	-0.460779	349.941
246.6000	-0.45453	350.017
246.5000	-0.463854	350.098
246.4000	-0.393236	350.18
246.3000	-0.304079	350.266
246.2000	-0.265492	350.351
246.1000	-0.285559	350.442
246.0000	-0.279191	350.534
245.9000	-0.306499	350.631
245.8000	-0.3465	350.729
245.7000	-0.352674	350.835
245.6000	-0.411981	350.938
245.5000	-0.433485	351.041
245.4000	-0.404214	351.151
245.3000	-0.364532	351.254
245.2000	-0.37477	351.363
245.1000	-0.453538	351.465
245.0000	-0.410002	351.563
244.9000	-0.415672	351.649
244.8000	-0.451104	351.736
244.7000	-0.506752	351.842
244.6000	-0.560487	351.941
244.5000	-0.515868	352.038
244.4000	-0.475486	352.13
244.3000	-0.449814	352.221
244.2000	-0.372227	352.324
244.1000	-0.309628	352.446
244.0000	-0.286386	352.567
243.9000	-0.17876	352.681
243.8000	-0.151179	352.788
243.7000	-0.202853	352.893
243.6000	-0.240641	353.003
243.5000	-0.236136	353.116
243.4000	-0.255779	353.232
243.3000	-0.235748	353.344
243.2000	-0.299971	353.449
243.1000	-0.39732	353.551
243.0000	-0.438393	353.656
242.9000	-0.459018	353.771
242.8000	-0.427724	353.887
242.7000	-0.486959	353.99
242.6000	-0.555534	354.083
242.5000	-0.642264	354.168
242.4000	-0.624404	354.265
242.3000	-0.485376	354.372
242.2000	-0.39101	354.48
242.1000	-0.319428	354.59
242.0000	-0.340678	354.703
241.9000	-0.396282	354.825
241.8000	-0.346661	354.958
241.7000	-0.251844	355.096
241.6000	-0.271066	355.22
241.5000	-0.309017	355.338
241.4000	-0.350816	355.459
241.3000	-0.329481	355.577
241.2000	-0.378478	355.681
241.1000	-0.352009	355.783
241.0000	-0.289384	355.891
240.9000	-0.249178	355.999
240.8000	-0.23019	356.112
240.7000	-0.242996	356.226
240.6000	-0.293022	356.335
240.5000	-0.373777	356.444
240.4000	-0.402669	356.564
240.3000	-0.344271	356.69
240.2000	-0.330864	356.822
240.1000	-0.400742	356.956
240.0000	-0.430316	357.096
239.9000	-0.480709	357.24
239.8000	-0.535424	357.389
239.7000	-0.567887	357.539
239.6000	-0.630982	357.692
239.5000	-0.640959	357.852
239.4000	-0.664025	358.006
239.3000	-0.720223	358.15
239.2000	-0.760527	358.293
239.1000	-0.687889	358.449
239.0000	-0.657289	358.601
238.9000	-0.629409	358.749
238.8000	-0.623269	358.896
238.7000	-0.72394	359.042
238.6000	-0.834056	359.184
238.5000	-0.85303	359.331
238.4000	-0.862299	359.48
238.3000	-0.892921	359.626
238.2000	-0.883916	359.78
238.1000	-0.885535	359.942
238.0000	-0.853827	360.108
237.9000	-0.781238	360.275
237.8000	-0.785858	360.436
237.7000	-0.776821	360.599
237.6000	-0.755036	360.77
237.5000	-0.747861	360.942
237.4000	-0.770333	361.106
237.3000	-0.667037	361.264
237.2000	-0.705193	361.419
237.1000	-0.737172	361.575
237.0000	-0.803637	361.729
236.9000	-0.827802	361.892
236.8000	-0.910241	362.053
236.7000	-0.908749	362.211
236.6000	-0.894432	362.367
236.5000	-0.957991	362.524
236.4000	-0.981166	362.696
236.3000	-0.926274	362.869
236.2000	-0.871454	363.038
236.1000	-0.810363	363.202
236.0000	-0.809267	363.363
235.9000	-0.823514	363.53
235.8000	-0.826585	363.703
235.7000	-0.916637	363.869
235.6000	-0.952606	364.035
235.5000	-1.05597	364.201
235.4000	-1.17151	364.374
235.3000	-1.22627	364.556
235.2000	-1.1878	364.739
235.1000	-1.18833	364.923
235.0000	-1.31611	365.103
234.9000	-1.31937	365.284
234.8000	-1.25032	365.471
234.7000	-1.18966	365.661
234.6000	-1.06407	365.847
234.5000	-0.908798	366.037
234.4000	-0.860439	366.225
234.3000	-0.825703	366.407
234.2000	-0.756657	366.592
234.1000	-0.663398	366.79
234.0000	-0.728472	366.981
233.9000	-0.66655	367.174
233.8000	-0.64123	367.373
233.7000	-0.715071	367.568
233.6000	-0.744991	367.76
233.5000	-0.815311	367.954
233.4000	-0.822741	368.142
233.3000	-0.809487	368.334
233.2000	-0.776557	368.538
233.1000	-0.831072	368.734
233.0000	-0.898751	368.927
232.9000	-0.909735	369.112
232.8000	-0.873183	369.308
232.7000	-0.76233	369.503
232.6000	-0.69357	369.703
232.5000	-0.778519	369.901
232.4000	-0.886868	370.083
232.3000	-0.99332	370.268
232.2000	-1.0918	370.449
232.1000	-1.13266	370.645
232.0000	-1.22157	370.839
231.9000	-1.23418	371.041
231.8000	-1.40574	371.236
231.7000	-1.50394	371.432
231.6000	-1.4535	371.638
231.5000	-1.36657	371.841
231.4000	-1.33669	372.042
231.3000	-1.44126	372.236
231.2000	-1.47296	372.436
231.1000	-1.60231	372.626
231.0000	-1.57024	372.821
230.9000	-1.54096	373.018
230.8000	-1.56622	373.211
230.7000	-1.67057	373.411
230.6000	-1.7207	373.618
230.5000	-1.73404	373.834
230.4000	-1.72572	374.045
230.3000	-1.68283	374.267
230.2000	-1.80479	374.482
230.1000	-1.90103	374.701
230.0000	-1.88081	374.918
229.9000	-1.79393	375.128
229.8000	-1.72676	375.333
229.7000	-1.64035	375.527
229.6000	-1.57372	375.72
229.5000	-1.59953	375.897
229.4000	-1.55947	376.069
229.3000	-1.41905	376.246
229.2000	-1.44275	376.413
229.1000	-1.40269	376.585
229.0000	-1.43887	376.762
228.9000	-1.43183	376.945
228.8000	-1.45564	377.132
228.7000	-1.53428	377.336
228.6000	-1.58003	377.551
228.5000	-1.63093	377.768
228.4000	-1.67837	378.002
228.3000	-1.7796	378.241
228.2000	-1.72182	378.488
228.1000	-1.69173	378.744
228.0000	-1.60629	378.997
227.9000	-1.43436	379.245
227.8000	-1.3435	379.482
227.7000	-1.31395	379.729
227.6000	-1.33335	379.965
227.5000	-1.30238	380.192
227.4000	-1.34428	380.414
227.3000	-1.42387	380.634
227.2000	-1.5085	380.852
227.1000	-1.68952	381.066
227.0000	-1.80703	381.281
226.9000	-1.86009	381.494
226.8000	-1.78308	381.713
226.7000	-1.68264	381.935
226.6000	-1.66363	382.153
226.5000	-1.77896	382.363
226.4000	-1.96075	382.566
226.3000	-2.00188	382.774
226.2000	-2.01596	382.986
226.1000	-2.1851	383.197
226.0000	-2.2805	383.405
225.9000	-2.35326	383.609
225.8000	-2.47106	383.811
225.7000	-2.45917	384.022
225.6000	-2.2721	384.239
225.5000	-2.05114	384.46
225.4000	-1.98506	384.676
225.3000	-1.84883	384.899
225.2000	-1.80192	385.124
225.1000	-1.79042	385.349
225.0000	-1.73449	385.575
224.9000	-1.6908	385.797
224.8000	-1.77592	386.014
224.7000	-1.93278	386.233
224.6000	-2.0694	386.448
224.5000	-2.02032	386.664
224.4000	-1.84962	386.884
224.3000	-1.73825	387.104
224.2000	-1.74184	387.317
224.1000	-1.82252	387.529
224.0000	-1.8385	387.747
223.9000	-1.77417	387.966
223.8000	-1.79164	388.187
223.7000	-1.80206	388.408
223.6000	-1.92944	388.623
223.5000	-2.03803	388.835
223.4000	-2.10665	389.049
223.3000	-2.17499	389.259
223.2000	-2.05103	389.477
223.1000	-2.0758	389.687
223.0000	-2.02788	389.902
222.9000	-1.93821	390.121
222.8000	-1.86477	390.337
222.7000	-1.7107	390.555
222.6000	-1.67072	390.771
222.5000	-1.70218	390.99
222.4000	-1.77268	391.203
222.3000	-1.85937	391.416
222.2000	-1.8487	391.629
222.1000	-1.86949	391.84
222.0000	-1.90644	392.05
221.9000	-2.05444	392.249
221.8000	-2.23422	392.448
221.7000	-2.32208	392.654
221.6000	-2.34791	392.865
221.5000	-2.31453	393.082
221.4000	-2.20828	393.295
221.3000	-2.18489	393.502
221.2000	-2.28049	393.708
221.1000	-2.38664	393.921
221.0000	-2.37246	394.137
220.9000	-2.20869	394.355
220.8000	-2.07476	394.574
220.7000	-2.05532	394.779
220.6000	-2.06107	394.988
220.5000	-2.07313	395.206
220.4000	-1.95616	395.421
220.3000	-1.84423	395.641
220.2000	-1.69202	395.865
220.1000	-1.7141	396.078
220.0000	-1.75886	396.295
219.9000	-1.77705	396.518
219.8000	-1.71096	396.742
219.7000	-1.69954	396.96
219.6000	-1.80375	397.173
219.5000	-1.87117	397.391
219.4000	-1.93421	397.61
219.3000	-2.07823	397.824
219.2000	-2.15176	398.041
219.1000	-2.10401	398.258
219.0000	-2.1887	398.476
218.9000	-2.33696	398.688
218.8000	-2.27549	398.912
218.7000	-2.15398	399.131
218.6000	-2.04236	399.348
218.5000	-1.92753	399.564
218.4000	-1.76502	399.785
218.3000	-1.70662	400
218.2000	-1.51902	400.225
218.1000	-1.44323	400.443
218.0000	-1.34103	400.668
217.9000	-1.33214	400.888
217.8000	-1.45887	401.095
217.7000	-1.40684	401.312
217.6000	-1.33976	401.527
217.5000	-1.42589	401.742
217.4000	-1.49672	401.953
217.3000	-1.57142	402.163
217.2000	-1.55004	402.378
217.1000	-1.57831	402.589
217.0000	-1.63965	402.802
216.9000	-1.61078	403.023
216.8000	-1.6157	403.241
216.7000	-1.56631	403.459
216.6000	-1.32911	403.687
216.5000	-1.21899	403.909
216.4000	-1.10795	404.127
216.3000	-1.07383	404.343
216.2000	-0.883965	404.571
216.1000	-0.801126	404.79
216.0000	-0.901781	405.003
215.9000	-1.00241	405.212
215.8000	-1.08341	405.423
215.7000	-1.18552	405.632
215.6000	-1.3674	405.841
215.5000	-1.56695	406.052
215.4000	-1.71755	406.26
215.3000	-1.76074	406.477
215.2000	-1.58938	406.702
215.1000	-1.46203	406.93
215.0000	-1.44511	407.155
214.9000	-1.46697	407.381
214.8000	-1.40246	407.611
214.7000	-1.30807	407.841
214.6000	-1.27995	408.07
214.5000	-1.32509	408.296
214.4000	-1.46594	408.522
214.3000	-1.59881	408.751
214.2000	-1.76557	408.977
214.1000	-1.83152	409.206
214.0000	-1.91238	409.435
213.9000	-2.00383	409.668
213.8000	-2.10798	409.903
213.7000	-2.24258	410.14
213.6000	-2.35492	410.377
213.5000	-2.1875	410.624
213.4000	-1.97167	410.873
213.3000	-1.7893	411.127
213.2000	-1.68144	411.381
213.1000	-1.54103	411.637
213.0000	-1.49954	411.888
212.9000	-1.30743	412.148
212.8000	-1.08867	412.403
212.7000	-1.18093	412.649
212.6000	-1.13513	412.898
212.5000	-1.072	413.152
212.4000	-1.11036	413.4
212.3000	-1.03295	413.653
212.2000	-0.971408	413.909
212.1000	-0.809969	414.168
212.0000	-0.780177	414.432
211.9000	-0.713302	414.702
211.8000	-0.804392	414.964
211.7000	-1.05428	415.223
211.6000	-1.21634	415.489
211.5000	-1.26766	415.754
211.4000	-1.22756	416.029
211.3000	-1.38287	416.296
211.2000	-1.62243	416.552
211.1000	-1.58038	416.824
211.0000	-1.52027	417.105
210.9000	-1.47373	417.381
210.8000	-1.40667	417.659
210.7000	-1.27285	417.948
210.6000	-1.37483	418.224
210.5000	-1.37637	418.512
210.4000	-1.1966	418.807
210.3000	-1.21872	419.101
210.2000	-1.34812	419.382
210.1000	-1.40828	419.671
210.0000	-1.35298	419.968
209.9000	-1.36168	420.263
209.8000	-1.52458	420.548
209.7000	-1.65203	420.838
209.6000	-1.67277	421.132
209.5000	-1.65277	421.429
209.4000	-1.64302	421.726
209.3000	-1.76412	422.018
209.2000	-1.79676	422.316
209.1000	-1.80583	422.612
209.0000	-1.63856	422.914
208.9000	-1.51944	423.221
208.8000	-1.57568	423.519
208.7000	-1.85204	423.812
208.6000	-1.9435	424.118
208.5000	-1.82001	424.437
208.4000	-1.75095	424.749
208.3000	-1.86963	425.063
208.2000	-2.05878	425.378
208.1000	-2.27043	425.69
208.0000	-2.32409	426.006
207.9000	-2.16816	426.33
207.8000	-1.99227	426.655
207.7000	-2.15253	426.967
207.6000	-2.16294	427.287
207.5000	-2.09853	427.606
207.4000	-2.07421	427.92
207.3000	-1.85557	428.242
207.2000	-1.67884	428.564
207.1000	-1.6432	428.88
207.0000	-1.78799	429.192
206.9000	-1.86693	429.505
206.8000	-1.79447	429.821
206.7000	-1.95632	430.129
206.6000	-2.01431	430.442
206.5000	-2.04875	430.759
206.4000	-2.07559	431.077
206.3000	-2.07691	431.4
206.2000	-2.05387	431.717
206.1000	-1.87205	432.036
206.0000	-1.74368	432.353
205.9000	-1.6127	432.674
205.8000	-1.52116	432.996
205.7000	-1.40917	433.318
205.6000	-1.2417	433.642
205.5000	-1.07234	433.966
205.4000	-0.920389	434.296
205.3000	-0.939183	434.623
205.2000	-0.941105	434.951
205.1000	-0.911392	435.286
205.0000	-0.906148	435.619
204.9000	-0.880127	435.951
204.8000	-0.938048	436.283
204.7000	-1.04494	436.62
204.6000	-1.14471	436.951
204.5000	-1.23761	437.283
204.4000	-1.19162	437.625
204.3000	-1.28074	437.961
204.2000	-1.27882	438.301
204.1000	-1.31089	438.637
204.0000	-1.31524	438.981
203.9000	-1.42037	439.319
203.8000	-1.55594	439.659
203.7000	-1.54991	440.006
203.6000	-1.57763	440.36
203.5000	-1.39516	440.721
203.4000	-1.47524	441.076
203.3000	-1.40686	441.443
203.2000	-1.22387	441.818
203.1000	-1.1448	442.19
203.0000	-0.873431	442.571
202.9000	-0.597309	442.954
202.8000	-0.372943	443.327
202.7000	-0.284343	443.706
202.6000	-0.207139	444.08
202.5000	-0.0282303	444.457
202.4000	-0.102191	444.83
202.3000	-0.295344	445.202
202.2000	-0.360478	445.578
202.1000	-0.529879	445.951
202.0000	-0.713048	446.329
201.9000	-0.823179	446.718
201.8000	-0.635796	447.122
201.7000	-0.643844	447.525
201.6000	-0.399616	447.944
201.5000	-0.0217403	448.366
201.4000	0.244667	448.787
201.3000	0.429665	449.214
201.2000	0.624521	449.647
201.1000	0.759195	450.079
201.0000	0.688314	450.503
200.9000	0.501375	450.93
200.8000	0.194832	451.355
200.7000	-0.153815	451.79
200.6000	-0.0698143	452.249
200.5000	0.123947	452.721
200.4000	0.329336	453.201
200.3000	0.53578	453.69
200.2000	0.637287	454.184
200.1000	0.939093	454.683
200.0000	1.29165	455.187
199.9000	1.49579	455.685
199.8000	1.5569	456.175
199.7000	1.51592	456.652
199.6000	1.53216	457.128
199.5000	1.55312	457.609
199.4000	1.4998	458.087
199.3000	1.39392	458.568
199.2000	1.37044	459.061
199.1000	1.38764	459.564
199.0000	1.3194	460.077
198.9000	1.36054	460.61
198.8000	1.31298	461.159
198.7000	1.24129	461.721
198.6000	1.34919	462.305
198.5000	1.36459	462.904
198.4000	1.49053	463.522
198.3000	1.39396	464.143
198.2000	1.37439	464.797
198.1000	1.35287	465.477
198.0000	1.29418	466.181
197.9000	1.29331	466.912
197.8000	1.0609	467.651
197.7000	1.34228	468.421
197.6000	1.45961	469.195
197.5000	1.42009	469.964
197.4000	1.70343	470.729
197.3000	1.89858	471.466
197.2000	2.25449	472.173
197.1000	2.59748	472.844
197.0000	3.05373	473.498
196.9000	2.92563	474.13
196.8000	2.66069	474.758
196.7000	2.54757	475.41
196.6000	2.62447	476.09
196.5000	2.76133	476.812
196.4000	2.64376	477.582
196.3000	2.52163	478.41
196.2000	2.37124	479.299
196.1000	2.30843	480.244
196.0000	2.57011	481.273
195.9000	2.69162	482.378
195.8000	2.74865	483.582
195.7000	2.51288	484.895
195.6000	2.57612	486.325
195.5000	2.25492	487.85
195.4000	2.13765	489.459
195.3000	2.26221	491.119
195.2000	2.15091	492.79
195.1000	2.29032	494.438
195.0000	2.31175	495.989
194.9000	2.4022	497.379
194.8000	2.3507	498.596
194.7000	2.36633	499.644
194.6000	2.48428	500.575
194.5000	2.38576	501.414
194.4000	2.55781	502.216
194.3000	2.83036	503.007
194.2000	2.93789	503.856
194.1000	3.10784	504.833
194.0000	3.46836	506.004
193.9000	3.72287	507.389
193.8000	4.24675	509.008
193.7000	4.47735	510.883
193.6000	4.70076	513.04
193.5000	5.01695	515.535
193.4000	5.25238	518.401
193.3000	5.40809	521.619
193.2000	5.88356	525.14
193.1000	5.74448	528.845
193.0000	5.17602	532.653
192.9000	4.95656	536.456
192.8000	5.24798	540.125
192.7000	5.05584	543.436
192.6000	4.83678	546.211
192.5000	5.17597	548.415
192.4000	5.25894	550.082
192.3000	5.31697	551.311
192.2000	5.89524	552.22
192.1000	5.68252	552.889
192.0000	5.29818	553.491
191.9000	5.20377	554.241
191.8000	5.70825	555.378
191.7000	5.44041	557.02
191.6000	5.61093	559.238
191.5000	5.25179	561.991
191.4000	5.19953	565.327
191.3000	5.78022	569.323
191.2000	6.30393	573.969
191.1000	6.3539	579.218
191.0000	5.30772	584.946
190.9000	5.17543	591.075
190.8000	5.3401	597.431
190.7000	5.68968	603.822
190.6000	5.36358	610.034
190.5000	4.62588	615.764
190.4000	2.99502	620.73
190.3000	1.78361	624.852
190.2000	2.35242	628.208
190.1000	1.99064	630.837
190.0000	1	632.905

##### Extended Information
[Comments]
Sample name	ACE2
Comment
User
Division
Company	CSIR-IMTECH

[Detailed Information]
Creation date	4/8/2024 5:55 PM

Data array type	Linear data array * 2
Horizontal axis	Wavelength [nm]
Vertical axis(1)	CD [mdeg]
Vertical axis(2)	HT [V]
Start	350 nm
End	190 nm
Data interval	0.1 nm
Data points	1601    

[Measurement Information]
Instrument Name	JASCO CD
Model Name	J-815
Serial No.	B063061168

Accessory	PTC-423S
Accessory S/N	C013945-01
  Temperature	37.62 C
  Control Sonsor	Cell
  Monitor Sensor	Cell
  Start Mode	Start immediately
  Cell Length	10 mm

Measurement date	4/8/2024 5:55 PM

Photometric Mode	CD, HT
Measure Range	350 - 190 nm
Data pitch	0.1 nm
Sensitivity	Standard
D.I.T.	1 sec
Bandwidth	1.00 nm
Start Mode	Immediately
Scanning Speed	50 nm/min
Baseline Correction	None
Shutter Control	Auto
CD Detector	PMT
PMT Voltage	Auto
Accumulations	3
Concentration	0.27 umol/L

