TITLE	ACE2_D2_0.3uM
DATA TYPE	
ORIGIN	JASCO
OWNER	
DATE	24/02/26
TIME	15:54:21
SPECTROMETER/DATA SYSTEM	
LOCALE	1033
RESOLUTION	
DELTAX	-0.1
XUNITS	NANOMETERS
YUNITS	Mol. Ellip.
Y2UNITS	HT [V]
FIRSTX	  350.0000
LASTX	  190.0000
NPOINTS	    1601
FIRSTY	4247067.00000
MAXY	63669052.00000
MINY	-11959089.00000
XYDATA
350.0000	4.24707E+006	468.563
349.9000	3.52758E+006	467.987
349.8000	3.52409E+006	467.142
349.7000	4.61447E+006	466.297
349.6000	4.59887E+006	465.667
349.5000	1.90745E+006	465.088
349.4000	-580753	464.199
349.3000	-1.99292E+006	463.578
349.2000	-3.03487E+006	463.051
349.1000	-3.58683E+006	462.234
349.0000	-3.00215E+006	461.628
348.9000	-3.14287E+006	461.082
348.8000	-4.13123E+006	460.23
348.7000	-3.78334E+006	459.372
348.6000	-2.71277E+006	458.757
348.5000	-2.51311E+006	458.22
348.4000	-1.86001E+006	457.365
348.3000	-1.04418E+006	456.728
348.2000	-1.55751E+006	456.155
348.1000	-2.6902E+006	455.312
348.0000	-3.14698E+006	454.694
347.9000	-2.35104E+006	454.169
347.8000	-2.63971E+006	453.375
347.7000	-2.24431E+006	452.576
347.6000	-1.84605E+006	452.017
347.5000	-1.78363E+006	451.544
347.4000	-1.01454E+006	450.781
347.3000	181698	450.205
347.2000	251672	449.693
347.1000	741303	448.937
347.0000	1.83961E+006	448.377
346.9000	1.59878E+006	447.88
346.8000	1.26407E+006	447.1
346.7000	1.28368E+006	446.318
346.6000	340461	445.732
346.5000	-473273	445.008
346.4000	-798564	444.282
346.3000	-2.06773E+006	443.724
346.2000	-2.94083E+006	442.98
346.1000	-3.34896E+006	442.223
346.0000	-2.43086E+006	441.685
345.9000	-2.79301E+006	441.218
345.8000	-2.82979E+006	440.483
345.7000	-3.54849E+006	439.928
345.6000	-3.61213E+006	439.447
345.5000	-3.1378E+006	438.75
345.4000	-2.39923E+006	438.241
345.3000	-2.31415E+006	437.808
345.2000	-2.59886E+006	437.122
345.1000	-2.69402E+006	436.424
345.0000	-2.447E+006	435.917
344.9000	-1.94921E+006	435.245
344.8000	-1.04836E+006	434.558
344.7000	-227603	434.018
344.6000	296485	433.343
344.5000	406121	432.66
344.4000	324741	432.152
344.3000	558892	431.497
344.2000	1.00695E+006	430.836
344.1000	1.37339E+006	430.349
344.0000	1.70993E+006	429.728
343.9000	1.84061E+006	429.099
343.8000	1.64771E+006	428.63
343.7000	1.74678E+006	428.219
343.6000	2.0458E+006	427.596
343.5000	2.13314E+006	427.143
343.4000	1.66215E+006	426.754
343.3000	1.04951E+006	426.125
343.2000	105804	425.661
343.1000	-1.08301E+006	425.257
343.0000	-1.85864E+006	424.681
342.9000	-2.23241E+006	424.099
342.8000	-2.38068E+006	423.663
342.7000	-2.55632E+006	423.067
342.6000	-3.00066E+006	422.458
342.5000	-3.05038E+006	422.023
342.4000	-2.03605E+006	421.484
342.3000	-489014	420.941
342.2000	267073	420.518
342.1000	-17907	419.957
342.0000	-330631	419.393
341.9000	-691281	418.989
341.8000	-68101.7	418.469
341.7000	709568	417.939
341.6000	786479	417.536
341.5000	232839	416.986
341.4000	-84835.5	416.424
341.3000	237186	416.002
341.2000	-112101	415.46
341.1000	272644	414.914
341.0000	-324544	414.506
340.9000	-550717	413.966
340.8000	-422312	413.421
340.7000	-164202	413.018
340.6000	294379	412.523
340.5000	37170.4	412.013
340.4000	708042	411.634
340.3000	1.25139E+006	411.121
340.2000	1.7805E+006	410.593
340.1000	2.53031E+006	410.207
340.0000	2.30166E+006	409.713
339.9000	2.04211E+006	409.209
339.8000	1.4489E+006	408.82
339.7000	1.35142E+006	408.334
339.6000	1.11434E+006	407.837
339.5000	575992	407.469
339.4000	113810	406.996
339.3000	-853360	406.507
339.2000	-1.43271E+006	405.979
339.1000	-1.44511E+006	405.513
339.0000	-1.69227E+006	405.038
338.9000	-1.68584E+006	404.518
338.8000	-1.83332E+006	404.051
338.7000	-2.09672E+006	403.581
338.6000	-1.90949E+006	403.072
338.5000	-821045	402.626
338.4000	217536	402.296
338.3000	330766	401.884
338.2000	467590	401.467
338.1000	886726	401.169
338.0000	1.1695E+006	400.758
337.9000	1.3819E+006	400.34
337.8000	1.44711E+006	400.045
337.7000	1.10569E+006	399.646
337.6000	566976	399.239
337.5000	171597	398.933
337.4000	41588.7	398.527
337.3000	-437625	398.107
337.2000	-548628	397.652
337.1000	-479658	397.246
337.0000	-923153	396.827
336.9000	-1.17066E+006	396.39
336.8000	-1.20785E+006	396.005
336.7000	-1.3294E+006	395.614
336.6000	-1.54788E+006	395.181
336.5000	-1.50705E+006	394.795
336.4000	-1.59367E+006	394.521
336.3000	-2.18749E+006	394.158
336.2000	-2.61146E+006	393.795
336.1000	-2.47047E+006	393.529
336.0000	-3.00865E+006	393.173
335.9000	-3.03915E+006	392.8
335.8000	-2.71434E+006	392.386
335.7000	-2.43077E+006	392.018
335.6000	-2.17357E+006	391.644
335.5000	-1.93524E+006	391.241
335.4000	-1.07943E+006	390.883
335.3000	-373542	390.52
335.2000	130754	390.135
335.1000	196526	389.794
335.0000	149848	389.564
334.9000	150526	389.238
334.8000	184523	388.9
334.7000	435398	388.537
334.6000	27272.5	388.214
334.5000	-230516	387.883
334.4000	-294081	387.509
334.3000	-43318	387.171
334.2000	-224616	386.822
334.1000	-582876	386.446
334.0000	-217400	386.122
333.9000	-270053	385.878
333.8000	488366	385.559
333.7000	868364	385.225
333.6000	258755	384.848
333.5000	-93960.2	384.517
333.4000	51540.8	384.188
333.3000	357018	383.833
333.2000	-18744.6	383.517
333.1000	-139082	383.199
333.0000	-553999	382.865
332.9000	-1.19695E+006	382.568
332.8000	-1.14435E+006	382.243
332.7000	-1.01744E+006	381.96
332.6000	-1.12917E+006	381.665
332.5000	-1.57911E+006	381.34
332.4000	-1.75732E+006	381.058
332.3000	-1.46735E+006	380.772
332.2000	-905240	380.449
332.1000	-638970	380.152
332.0000	-299289	379.823
331.9000	214508	379.544
331.8000	506297	379.262
331.7000	1.00228E+006	378.957
331.6000	905796	378.679
331.5000	711700	378.283
331.4000	64222.5	377.964
331.3000	-682929	377.682
331.2000	-1.53456E+006	377.39
331.1000	-2.12307E+006	377.136
331.0000	-2.01406E+006	376.874
330.9000	-1.96206E+006	376.588
330.8000	-1.65307E+006	376.331
330.7000	-1.49966E+006	376.045
330.6000	-1.51259E+006	375.793
330.5000	-1.58976E+006	375.536
330.4000	-694183	375.248
330.3000	-352841	374.99
330.2000	-790171	374.626
330.1000	-1.15301E+006	374.335
330.0000	-1.10101E+006	374.081
329.9000	-687809	373.793
329.8000	-687826	373.538
329.7000	-150323	373.202
329.6000	153707	372.939
329.5000	76236.3	372.707
329.4000	-191359	372.428
329.3000	-288144	372.181
329.2000	-516646	371.846
329.1000	-1.36109E+006	371.588
329.0000	-2.06602E+006	371.37
328.9000	-2.4572E+006	371.111
328.8000	-2.68962E+006	370.871
328.7000	-3.00137E+006	370.573
328.6000	-2.61988E+006	370.357
328.5000	-2.47202E+006	370.182
328.4000	-2.80844E+006	369.923
328.3000	-2.57709E+006	369.689
328.2000	-1.98975E+006	369.443
328.1000	-1.3581E+006	369.275
328.0000	-1.38613E+006	369.137
327.9000	-1.20847E+006	368.862
327.8000	-746585	368.599
327.7000	-313734	368.357
327.6000	68037.2	368.223
327.5000	241038	368.136
327.4000	163276	367.847
327.3000	-111762	367.54
327.2000	-304572	367.259
327.1000	-31840	367.118
327.0000	25929.8	367.038
326.9000	-119141	366.757
326.8000	-665192	366.438
326.7000	-1.14645E+006	366.137
326.6000	-1.52722E+006	365.99
326.5000	-1.79287E+006	365.925
326.4000	-1.8621E+006	365.644
326.3000	-2.31806E+006	365.325
326.2000	-3.3507E+006	365.036
326.1000	-3.66692E+006	364.885
326.0000	-3.32251E+006	364.599
325.9000	-2.89597E+006	364.293
325.8000	-2.59695E+006	363.974
325.7000	-2.36365E+006	363.692
325.6000	-2.21949E+006	363.556
325.5000	-1.91924E+006	363.289
325.4000	-1.22684E+006	362.996
325.3000	-1.00444E+006	362.68
325.2000	-1.17144E+006	362.564
325.1000	-1.12983E+006	362.533
325.0000	-1.36244E+006	362.304
324.9000	-1.34719E+006	362.038
324.8000	-1.4508E+006	361.774
324.7000	-1.60734E+006	361.666
324.6000	-1.59644E+006	361.634
324.5000	-1.92625E+006	361.389
324.4000	-1.69512E+006	361.105
324.3000	-2.05256E+006	360.812
324.2000	-2.27855E+006	360.659
324.1000	-2.14194E+006	360.383
324.0000	-1.84163E+006	360.084
323.9000	-2.21701E+006	359.76
323.8000	-2.75592E+006	359.464
323.7000	-2.71085E+006	359.319
323.6000	-2.53193E+006	359.077
323.5000	-2.28398E+006	358.816
323.4000	-1.73528E+006	358.574
323.3000	-1.3891E+006	358.478
323.2000	-1.3709E+006	358.45
323.1000	-461948	358.275
323.0000	404555	358.067
322.9000	592167	357.82
322.8000	330139	357.687
322.7000	-115865	357.443
322.6000	-344801	357.163
322.5000	-401574	356.863
322.4000	-243296	356.565
322.3000	-552450	356.365
322.2000	-928023	356.024
322.1000	-1.13568E+006	355.686
322.0000	-1.29711E+006	355.372
321.9000	-1.03705E+006	355.185
321.8000	-908474	354.949
321.7000	-763251	354.714
321.6000	-1.18642E+006	354.472
321.5000	-1.23181E+006	354.237
321.4000	-1.31815E+006	354.154
321.3000	-1.19085E+006	354.041
321.2000	-922431	353.919
321.1000	-1.0816E+006	353.761
321.0000	-1.32202E+006	353.696
320.9000	-1.55332E+006	353.556
320.8000	-1.55961E+006	353.412
320.7000	-1.43275E+006	353.258
320.6000	-1.40813E+006	353.095
320.5000	-1.11123E+006	353.012
320.4000	-899129	352.818
320.3000	-647685	352.631
320.2000	-212657	352.436
320.1000	154622	352.32
320.0000	412913	352.16
319.9000	345205	352.006
319.8000	179772	351.812
319.7000	31806.1	351.61
319.6000	-543210	351.417
319.5000	-996267	351.28
319.4000	-1.26043E+006	351.15
319.3000	-1.42017E+006	350.972
319.2000	-1.66951E+006	350.85
319.1000	-1.87186E+006	350.662
319.0000	-2.14274E+006	350.495
318.9000	-2.50271E+006	350.291
318.8000	-2.7285E+006	350.152
318.7000	-2.50966E+006	349.924
318.6000	-2.1135E+006	349.689
318.5000	-1.93394E+006	349.474
318.4000	-1.7965E+006	349.274
318.3000	-2.10042E+006	349.072
318.2000	-2.22836E+006	348.906
318.1000	-2.14687E+006	348.773
318.0000	-1.59513E+006	348.606
317.9000	-1.59503E+006	348.519
317.8000	-1.75989E+006	348.407
317.7000	-2.04026E+006	348.302
317.6000	-2.1794E+006	348.132
317.5000	-1.92071E+006	348.008
317.4000	-1.61928E+006	347.839
317.3000	-1.35707E+006	347.664
317.2000	-1.33353E+006	347.461
317.1000	-1.16925E+006	347.269
317.0000	-854591	347.039
316.9000	-988803	346.822
316.8000	-1.2899E+006	346.613
316.7000	-1.22117E+006	346.424
316.6000	-1.20129E+006	346.256
316.5000	-895108	346.11
316.4000	-1.05624E+006	345.933
316.3000	-1.33794E+006	345.773
316.2000	-1.45874E+006	345.642
316.1000	-1.22407E+006	345.549
316.0000	-886654	345.488
315.9000	-851915	345.347
315.8000	-969259	345.224
315.7000	-1.0525E+006	345.063
315.6000	-962331	344.955
315.5000	-793806	344.791
315.4000	-627903	344.648
315.3000	-609758	344.442
315.2000	-691410	344.226
315.1000	-939324	344.031
315.0000	-625671	343.862
314.9000	-258786	343.704
314.8000	-391893	343.554
314.7000	-763902	343.388
314.6000	-1.30375E+006	343.245
314.5000	-1.96369E+006	343.117
314.4000	-2.01322E+006	343.013
314.3000	-1.68294E+006	342.867
314.2000	-1.60021E+006	342.732
314.1000	-1.71725E+006	342.567
314.0000	-1.70207E+006	342.407
313.9000	-1.10223E+006	342.232
313.8000	-550473	342.078
313.7000	203895	341.872
313.6000	762634	341.67
313.5000	744208	341.477
313.4000	651218	341.307
313.3000	208503	341.157
313.2000	-234002	341.021
313.1000	-443580	340.864
313.0000	-859144	340.726
312.9000	-1.07641E+006	340.611
312.8000	-1.29589E+006	340.52
312.7000	-993578	340.391
312.6000	-837406	340.27
312.5000	-859317	340.115
312.4000	-688087	339.956
312.3000	-570645	339.774
312.2000	-584696	339.606
312.1000	-276086	339.389
312.0000	-157678	339.176
311.9000	-490455	338.971
311.8000	-532396	338.784
311.7000	-566620	338.627
311.6000	-575426	338.418
311.5000	-517721	338.267
311.4000	-497423	338.122
311.3000	-351959	338.032
311.2000	-265299	337.91
311.1000	-186768	337.825
311.0000	-264774	337.732
310.9000	-46624.1	337.644
310.8000	432139	337.551
310.7000	513784	337.475
310.6000	687670	337.356
310.5000	724776	337.243
310.4000	574229	337.134
310.3000	457167	337.04
310.2000	582218	336.958
310.1000	649262	336.883
310.0000	454108	336.789
309.9000	717835	336.714
309.8000	745124	336.654
309.7000	749732	336.549
309.6000	894250	336.47
309.5000	1.02992E+006	336.374
309.4000	1.35304E+006	336.288
309.3000	1.58112E+006	336.13
309.2000	1.68548E+006	336.01
309.1000	1.2927E+006	335.861
309.0000	1.12838E+006	335.73
308.9000	1.1132E+006	335.605
308.8000	831139	335.494
308.7000	782806	335.395
308.6000	655087	335.305
308.5000	20206	335.194
308.4000	-358561	335.1
308.3000	-119375	335.039
308.2000	234578	334.922
308.1000	296716	334.834
308.0000	395094	334.747
307.9000	359175	334.667
307.8000	248396	334.516
307.7000	226434	334.408
307.6000	260997	334.296
307.5000	191206	334.129
307.4000	22030.3	334.011
307.3000	-262336	333.908
307.2000	-316813	333.817
307.1000	-421322	333.671
307.0000	-517666	333.575
306.9000	-558339	333.497
306.8000	-506375	333.444
306.7000	-324446	333.372
306.6000	-426090	333.295
306.5000	-449283	333.223
306.4000	-280528	333.094
306.3000	-223107	333.004
306.2000	89453.8	332.901
306.1000	72506.4	332.801
306.0000	-93261.7	332.654
305.9000	-241706	332.555
305.8000	-260478	332.482
305.7000	-94428.2	332.354
305.6000	-302070	332.27
305.5000	-485335	332.205
305.4000	-523444	332.164
305.3000	-516724	332.067
305.2000	-381324	332
305.1000	-275831	331.932
305.0000	-347707	331.81
304.9000	-417657	331.731
304.8000	-451992	331.646
304.7000	-133674	331.563
304.6000	-212409	331.428
304.5000	-93573.7	331.336
304.4000	-199212	331.27
304.3000	-455770	331.146
304.2000	-813612	331.07
304.1000	-1.04709E+006	331.017
304.0000	-1.13204E+006	330.984
303.9000	-1.20398E+006	330.897
303.8000	-1.16889E+006	330.83
303.7000	-1.50614E+006	330.785
303.6000	-1.66983E+006	330.68
303.5000	-1.58083E+006	330.618
303.4000	-1.30012E+006	330.554
303.3000	-1.01049E+006	330.451
303.2000	-1.21697E+006	330.346
303.1000	-1.45209E+006	330.266
303.0000	-1.59733E+006	330.221
302.9000	-1.49524E+006	330.123
302.8000	-1.41602E+006	330.055
302.7000	-1.61533E+006	330.009
302.6000	-1.72934E+006	329.921
302.5000	-1.94091E+006	329.869
302.4000	-1.85508E+006	329.816
302.3000	-1.64794E+006	329.723
302.2000	-1.69959E+006	329.629
302.1000	-1.87755E+006	329.551
302.0000	-1.79853E+006	329.497
301.9000	-1.38084E+006	329.406
301.8000	-1.10619E+006	329.337
301.7000	-1.1073E+006	329.286
301.6000	-948720	329.195
301.5000	-757134	329.146
301.4000	-522407	329.104
301.3000	-175897	329.028
301.2000	-264655	328.961
301.1000	-256059	328.905
301.0000	-431895	328.876
300.9000	-202722	328.807
300.8000	-69824.2	328.736
300.7000	-91271.3	328.681
300.6000	-155999	328.603
300.5000	-187517	328.541
300.4000	-110362	328.495
300.3000	-388577	328.412
300.2000	-274126	328.336
300.1000	-286743	328.277
300.0000	-302060	328.215
299.9000	-448903	328.162
299.8000	-705166	328.11
299.7000	-841438	328.042
299.6000	-1.01151E+006	327.981
299.5000	-876377	327.924
299.4000	-855835	327.881
299.3000	-1.09385E+006	327.813
299.2000	-1.35507E+006	327.762
299.1000	-1.237E+006	327.728
299.0000	-1.03709E+006	327.665
298.9000	-870795	327.622
298.8000	-822713	327.593
298.7000	-807142	327.542
298.6000	-1.04865E+006	327.495
298.5000	-992906	327.455
298.4000	-855469	327.4
298.3000	-984365	327.344
298.2000	-1.05619E+006	327.294
298.1000	-1.10342E+006	327.239
298.0000	-1.13147E+006	327.189
297.9000	-1.07032E+006	327.148
297.8000	-918315	327.086
297.7000	-1.10427E+006	327.034
297.6000	-1.15774E+006	327.001
297.5000	-1.17518E+006	326.943
297.4000	-1.29658E+006	326.9
297.3000	-1.55194E+006	326.865
297.2000	-1.79041E+006	326.805
297.1000	-1.9403E+006	326.758
297.0000	-2.10099E+006	326.716
296.9000	-2.1542E+006	326.658
296.8000	-2.0316E+006	326.612
296.7000	-1.65508E+006	326.578
296.6000	-1.58096E+006	326.556
296.5000	-1.4337E+006	326.515
296.4000	-1.32499E+006	326.486
296.3000	-1.45728E+006	326.467
296.2000	-1.3645E+006	326.433
296.1000	-1.33001E+006	326.406
296.0000	-1.24787E+006	326.387
295.9000	-1.32186E+006	326.349
295.8000	-1.45402E+006	326.293
295.7000	-1.49744E+006	326.259
295.6000	-1.41106E+006	326.223
295.5000	-1.31948E+006	326.165
295.4000	-1.34134E+006	326.1
295.3000	-1.25441E+006	326.064
295.2000	-1.10576E+006	326.015
295.1000	-1.08594E+006	325.954
295.0000	-1.12445E+006	325.919
294.9000	-1.0528E+006	325.873
294.8000	-1.32485E+006	325.813
294.7000	-1.552E+006	325.779
294.6000	-1.47644E+006	325.754
294.5000	-1.30967E+006	325.713
294.4000	-1.36012E+006	325.682
294.3000	-1.3128E+006	325.659
294.2000	-1.21696E+006	325.618
294.1000	-1.10697E+006	325.59
294.0000	-653368	325.575
293.9000	-259026	325.535
293.8000	-95336.9	325.507
293.7000	31873.9	325.487
293.6000	101983	325.444
293.5000	43826.6	325.391
293.4000	32355.4	325.369
293.3000	46868.2	325.331
293.2000	-93092.2	325.286
293.1000	-203139	325.27
293.0000	-199114	325.232
292.9000	-301988	325.192
292.8000	-672852	325.178
292.7000	-703868	325.158
292.6000	-1.03645E+006	325.125
292.5000	-1.04369E+006	325.074
292.4000	-1.2417E+006	325.046
292.3000	-1.50868E+006	325
292.2000	-1.75064E+006	324.951
292.1000	-2.0928E+006	324.927
292.0000	-2.28674E+006	324.886
291.9000	-2.40642E+006	324.834
291.8000	-2.32564E+006	324.792
291.7000	-2.23837E+006	324.78
291.6000	-2.23951E+006	324.746
291.5000	-2.23045E+006	324.708
291.4000	-2.20929E+006	324.691
291.3000	-1.81839E+006	324.645
291.2000	-1.46681E+006	324.587
291.1000	-1.08943E+006	324.525
291.0000	-989658	324.477
290.9000	-1.04319E+006	324.404
290.8000	-897040	324.309
290.7000	-911821	324.21
290.6000	-641168	324.103
290.5000	-379629	323.975
290.4000	-281206	323.849
290.3000	-302938	323.744
290.2000	-284604	323.62
290.1000	-490648	323.495
290.0000	-573629	323.387
289.9000	-529504	323.322
289.8000	-379557	323.276
289.7000	-559960	323.246
289.6000	-683478	323.259
289.5000	-889852	323.301
289.4000	-885149	323.359
289.3000	-668972	323.448
289.2000	-811890	323.547
289.1000	-741584	323.658
289.0000	-821106	323.756
288.9000	-783200	323.847
288.8000	-999895	323.925
288.7000	-994978	323.994
288.6000	-1.01225E+006	324.039
288.5000	-1.01781E+006	324.075
288.4000	-868127	324.088
288.3000	-787184	324.094
288.2000	-795614	324.092
288.1000	-886356	324.079
288.0000	-772166	324.064
287.9000	-544834	324.026
287.8000	-469310	324.005
287.7000	-236060	323.987
287.6000	-361518	323.966
287.5000	-332143	323.943
287.4000	-468614	323.926
287.3000	-395972	323.905
287.2000	-760437	323.888
287.1000	-736613	323.869
287.0000	-797004	323.839
286.9000	-1.03454E+006	323.819
286.8000	-1.14887E+006	323.803
286.7000	-1.35274E+006	323.791
286.6000	-1.50936E+006	323.76
286.5000	-1.37717E+006	323.753
286.4000	-980584	323.757
286.3000	-859806	323.757
286.2000	-1.03079E+006	323.761
286.1000	-1.04515E+006	323.748
286.0000	-876773	323.748
285.9000	-884898	323.746
285.8000	-631856	323.744
285.7000	-603594	323.732
285.6000	-908902	323.701
285.5000	-1.0243E+006	323.698
285.4000	-811785	323.703
285.3000	-638896	323.707
285.2000	-899346	323.695
285.1000	-965725	323.678
285.0000	-1.03862E+006	323.683
284.9000	-1.22432E+006	323.685
284.8000	-956299	323.693
284.7000	-851620	323.689
284.6000	-1.06511E+006	323.669
284.5000	-1.24481E+006	323.673
284.4000	-982127	323.686
284.3000	-904721	323.695
284.2000	-456207	323.695
284.1000	-94906.3	323.684
284.0000	-63452.8	323.669
283.9000	-19890.7	323.672
283.8000	174689	323.681
283.7000	452128	323.684
283.6000	480940	323.673
283.5000	938043	323.672
283.4000	1.05543E+006	323.665
283.3000	785889	323.677
283.2000	787916	323.702
283.1000	628526	323.706
283.0000	543009	323.702
282.9000	595839	323.695
282.8000	690375	323.695
282.7000	449398	323.712
282.6000	128757	323.73
282.5000	174025	323.742
282.4000	101898	323.737
282.3000	68654.4	323.734
282.2000	8446.59	323.733
282.1000	-256151	323.749
282.0000	-619459	323.763
281.9000	-916026	323.762
281.8000	-839817	323.76
281.7000	-928318	323.753
281.6000	-937208	323.753
281.5000	-779643	323.756
281.4000	-621206	323.781
281.3000	-482066	323.798
281.2000	-94309.5	323.805
281.1000	235877	323.806
281.0000	86439.3	323.806
280.9000	28384.7	323.808
280.8000	44291.2	323.809
280.7000	-38082.5	323.813
280.6000	-1746.28	323.822
280.5000	152768	323.82
280.4000	-8609.35	323.817
280.3000	-104150	323.817
280.2000	159373	323.813
280.1000	322496	323.807
280.0000	564199	323.803
279.9000	620212	323.797
279.8000	589484	323.779
279.7000	517127	323.776
279.6000	791412	323.773
279.5000	781009	323.77
279.4000	265618	323.765
279.3000	-158091	323.759
279.2000	-396498	323.757
279.1000	-374322	323.757
279.0000	-409804	323.755
278.9000	-287360	323.745
278.8000	-455729	323.748
278.7000	-567912	323.752
278.6000	-160068	323.765
278.5000	54772.3	323.78
278.4000	309109	323.793
278.3000	217333	323.806
278.2000	95170.8	323.817
278.1000	-25183.8	323.828
278.0000	-119571	323.827
277.9000	-270647	323.823
277.8000	-534804	323.819
277.7000	-454631	323.816
277.6000	-202148	323.832
277.5000	-252611	323.844
277.4000	-274879	323.857
277.3000	-182475	323.874
277.2000	-192362	323.887
277.1000	-44426.8	323.905
277.0000	49102.8	323.921
276.9000	-7748.07	323.936
276.8000	-74178.1	323.936
276.7000	-174998	323.932
276.6000	-108588	323.934
276.5000	3668.89	323.936
276.4000	-30080.2	323.939
276.3000	17781.6	323.939
276.2000	-127608	323.939
276.1000	-136173	323.944
276.0000	-358941	323.969
275.9000	-416175	323.997
275.8000	-147339	324.022
275.7000	-36200.6	324.046
275.6000	-99375.4	324.069
275.5000	-61964.3	324.089
275.4000	-106439	324.111
275.3000	-59658.5	324.13
275.2000	-41917.6	324.137
275.1000	-15316.4	324.136
275.0000	-184150	324.137
274.9000	-356533	324.143
274.8000	-470815	324.148
274.7000	-554216	324.151
274.6000	-607490	324.157
274.5000	-583018	324.165
274.4000	-632236	324.174
274.3000	-710578	324.183
274.2000	-897044	324.189
274.1000	-1.20698E+006	324.198
274.0000	-1.26009E+006	324.209
273.9000	-1.39973E+006	324.222
273.8000	-1.44262E+006	324.234
273.7000	-1.31016E+006	324.245
273.6000	-1.204E+006	324.257
273.5000	-1.27397E+006	324.265
273.4000	-1.4872E+006	324.27
273.3000	-1.46093E+006	324.275
273.2000	-1.23836E+006	324.281
273.1000	-1.26059E+006	324.287
273.0000	-1.33957E+006	324.297
272.9000	-1.8731E+006	324.308
272.8000	-1.90082E+006	324.322
272.7000	-1.71158E+006	324.342
272.6000	-1.41307E+006	324.362
272.5000	-869141	324.386
272.4000	-580895	324.407
272.3000	-394925	324.434
272.2000	-247982	324.458
272.1000	146413	324.481
272.0000	372104	324.5
271.9000	422119	324.513
271.8000	290002	324.526
271.7000	116225	324.546
271.6000	-213389	324.564
271.5000	-399665	324.581
271.4000	-368707	324.593
271.3000	-310781	324.604
271.2000	-307359	324.614
271.1000	-218513	324.625
271.0000	-115448	324.633
270.9000	-131551	324.623
270.8000	-69685.2	324.615
270.7000	-296946	324.607
270.6000	-477468	324.597
270.5000	-585398	324.585
270.4000	-755758	324.576
270.3000	-954302	324.566
270.2000	-1.26158E+006	324.567
270.1000	-1.54817E+006	324.578
270.0000	-1.69364E+006	324.593
269.9000	-1.56901E+006	324.608
269.8000	-1.0713E+006	324.63
269.7000	-910607	324.649
269.6000	-609755	324.669
269.5000	-403100	324.695
269.4000	132555	324.706
269.3000	586399	324.713
269.2000	617204	324.722
269.1000	727166	324.734
269.0000	565331	324.74
268.9000	195245	324.756
268.8000	101376	324.774
268.7000	-67769.4	324.793
268.6000	-406847	324.816
268.5000	-864163	324.853
268.4000	-797787	324.896
268.3000	-625190	324.925
268.2000	-588660	324.958
268.1000	-371660	324.99
268.0000	-83197.7	325.03
267.9000	-133087	325.071
267.8000	-275852	325.116
267.7000	-344099	325.164
267.6000	-431759	325.211
267.5000	-535485	325.267
267.4000	-672126	325.306
267.3000	-684163	325.347
267.2000	-512855	325.391
267.1000	-520755	325.436
267.0000	-228400	325.484
266.9000	-76890.7	325.527
266.8000	-230021	325.567
266.7000	-310232	325.588
266.6000	-161485	325.628
266.5000	-240821	325.678
266.4000	-557807	325.723
266.3000	-554945	325.77
266.2000	-617347	325.814
266.1000	-459903	325.865
266.0000	-82051.6	325.898
265.9000	285858	325.949
265.8000	373728	326.012
265.7000	457472	326.072
265.6000	555108	326.138
265.5000	399306	326.198
265.4000	356968	326.243
265.3000	503682	326.28
265.2000	224148	326.334
265.1000	-21643.7	326.401
265.0000	-179077	326.457
264.9000	-108541	326.521
264.8000	-186957	326.563
264.7000	-343262	326.606
264.6000	-322754	326.671
264.5000	-651466	326.751
264.4000	-742269	326.837
264.3000	-829254	326.892
264.2000	-761661	326.941
264.1000	-850264	326.994
264.0000	-904616	327.06
263.9000	-777805	327.137
263.8000	-818241	327.198
263.7000	-1.07235E+006	327.247
263.6000	-1.19826E+006	327.298
263.5000	-1.17991E+006	327.36
263.4000	-1.14941E+006	327.437
263.3000	-1.25745E+006	327.497
263.2000	-1.27065E+006	327.557
263.1000	-1.21913E+006	327.618
263.0000	-781525	327.683
262.9000	-328010	327.747
262.8000	-9558.78	327.808
262.7000	228397	327.861
262.6000	212368	327.923
262.5000	43124.7	328.001
262.4000	-133328	328.071
262.3000	-241971	328.144
262.2000	-416385	328.215
262.1000	-607052	328.299
262.0000	-610636	328.364
261.9000	-690942	328.438
261.8000	-681756	328.514
261.7000	-654202	328.573
261.6000	-378014	328.636
261.5000	-71231.4	328.702
261.4000	-172736	328.76
261.3000	-147959	328.809
261.2000	-248739	328.884
261.1000	-197381	328.97
261.0000	-135902	329.054
260.9000	60299.3	329.132
260.8000	165226	329.22
260.7000	16815.2	329.313
260.6000	25604.2	329.402
260.5000	77948.7	329.492
260.4000	-76653.4	329.579
260.3000	-118920	329.661
260.2000	62493.2	329.733
260.1000	198276	329.811
260.0000	-6368	329.893
259.9000	82173.7	329.957
259.8000	266008	330.026
259.7000	417386	330.101
259.6000	475891	330.163
259.5000	511715	330.224
259.4000	347788	330.293
259.3000	361328	330.359
259.2000	598572	330.425
259.1000	650815	330.492
259.0000	716129	330.549
258.9000	339966	330.607
258.8000	254211	330.677
258.7000	548655	330.747
258.6000	550812	330.813
258.5000	531142	330.89
258.4000	222490	330.961
258.3000	307736	331.045
258.2000	381972	331.147
258.1000	440569	331.243
258.0000	489400	331.34
257.9000	399953	331.44
257.8000	701362	331.539
257.7000	739360	331.635
257.6000	614512	331.735
257.5000	151889	331.822
257.4000	-305667	331.906
257.3000	-444319	331.989
257.2000	-351942	332.078
257.1000	-437249	332.164
257.0000	-676137	332.251
256.9000	-787191	332.338
256.8000	-542921	332.414
256.7000	-170186	332.496
256.6000	-101640	332.579
256.5000	-41141.1	332.657
256.4000	-245833	332.733
256.3000	-77599.4	332.807
256.2000	-52425.8	332.883
256.1000	31507.7	332.968
256.0000	82109.2	333.049
255.9000	60180.7	333.14
255.8000	91281.5	333.216
255.7000	325751	333.299
255.6000	472215	333.387
255.5000	727102	333.472
255.4000	777937	333.561
255.3000	509705	333.627
255.2000	29832.6	333.694
255.1000	-261488	333.755
255.0000	-238647	333.826
254.9000	-224772	333.885
254.8000	-231778	333.95
254.7000	-381114	334.025
254.6000	-554738	334.096
254.5000	-460595	334.182
254.4000	-314870	334.269
254.3000	-59037.9	334.367
254.2000	8761.94	334.457
254.1000	5316.84	334.554
254.0000	87215.8	334.64
253.9000	160695	334.728
253.8000	81658.3	334.805
253.7000	234680	334.876
253.6000	301381	334.934
253.5000	327267	335.001
253.4000	396359	335.059
253.3000	330444	335.123
253.2000	90328.6	335.182
253.1000	-231123	335.246
253.0000	-556430	335.305
252.9000	-661584	335.369
252.8000	-378598	335.439
252.7000	-247406	335.51
252.6000	-346829	335.584
252.5000	-574822	335.664
252.4000	-718882	335.745
252.3000	-740689	335.836
252.2000	-402479	335.924
252.1000	-250865	336.017
252.0000	-462579	336.101
251.9000	-578661	336.184
251.8000	-364811	336.268
251.7000	-26448.6	336.343
251.6000	24722.6	336.419
251.5000	153944	336.485
251.4000	49540.2	336.566
251.3000	-143738	336.644
251.2000	-377553	336.716
251.1000	-635620	336.8
251.0000	-1.19645E+006	336.888
250.9000	-1.80638E+006	336.99
250.8000	-1.84751E+006	337.098
250.7000	-1.78072E+006	337.211
250.6000	-1.68977E+006	337.308
250.5000	-1.39969E+006	337.395
250.4000	-1.19628E+006	337.503
250.3000	-1.18864E+006	337.606
250.2000	-1.14614E+006	337.701
250.1000	-950002	337.777
250.0000	-960069	337.846
249.9000	-1.16558E+006	337.918
249.8000	-1.28231E+006	337.989
249.7000	-1.40293E+006	338.066
249.6000	-1.56502E+006	338.136
249.5000	-1.70218E+006	338.207
249.4000	-1.50652E+006	338.295
249.3000	-1.23772E+006	338.383
249.2000	-1.07391E+006	338.475
249.1000	-963491	338.572
249.0000	-780290	338.665
248.9000	-809950	338.759
248.8000	-811795	338.86
248.7000	-504795	338.953
248.6000	-309577	339.031
248.5000	-500715	339.112
248.4000	-600800	339.195
248.3000	-634457	339.274
248.2000	-619673	339.362
248.1000	-357971	339.455
248.0000	-318661	339.531
247.9000	-611196	339.606
247.8000	-755632	339.688
247.7000	-889560	339.774
247.6000	-993724	339.864
247.5000	-768575	339.944
247.4000	-564416	340.014
247.3000	-825158	340.084
247.2000	-1.32251E+006	340.169
247.1000	-1.45952E+006	340.255
247.0000	-1.78839E+006	340.333
246.9000	-1.89178E+006	340.414
246.8000	-1.7679E+006	340.478
246.7000	-1.65148E+006	340.541
246.6000	-1.83197E+006	340.611
246.5000	-1.6298E+006	340.692
246.4000	-1.1366E+006	340.77
246.3000	-630632	340.846
246.2000	-245561	340.925
246.1000	857.883	341.015
246.0000	170719	341.111
245.9000	-6140.81	341.217
245.8000	-167531	341.326
245.7000	-404931	341.436
245.6000	-747172	341.54
245.5000	-1.04081E+006	341.655
245.4000	-1.41751E+006	341.781
245.3000	-1.57376E+006	341.902
245.2000	-1.79482E+006	342.022
245.1000	-2.04287E+006	342.14
245.0000	-2.16359E+006	342.251
244.9000	-1.9504E+006	342.357
244.8000	-1.74623E+006	342.459
244.7000	-1.76968E+006	342.56
244.6000	-1.75559E+006	342.649
244.5000	-1.61968E+006	342.734
244.4000	-1.41649E+006	342.811
244.3000	-1.25054E+006	342.885
244.2000	-864458	342.97
244.1000	-776934	343.072
244.0000	-833615	343.179
243.9000	-1.08126E+006	343.285
243.8000	-825497	343.389
243.7000	-528351	343.492
243.6000	-503398	343.598
243.5000	-571045	343.718
243.4000	-455675	343.847
243.3000	-550649	343.96
243.2000	-468041	344.071
243.1000	-475152	344.177
243.0000	-392354	344.28
242.9000	-706512	344.387
242.8000	-1.04028E+006	344.499
242.7000	-1.00084E+006	344.609
242.6000	-936178	344.709
242.5000	-904022	344.811
242.4000	-993296	344.915
242.3000	-873572	345.024
242.2000	-688266	345.146
242.1000	-269504	345.279
242.0000	212385	345.41
241.9000	436974	345.544
241.8000	385674	345.685
241.7000	-38540.3	345.829
241.6000	-45718.7	345.969
241.5000	191911	346.109
241.4000	62004.9	346.25
241.3000	-446598	346.385
241.2000	-1.21114E+006	346.518
241.1000	-1.4673E+006	346.654
241.0000	-1.72105E+006	346.791
240.9000	-1.92895E+006	346.92
240.8000	-1.71292E+006	347.049
240.7000	-1.98352E+006	347.184
240.6000	-2.48995E+006	347.321
240.5000	-2.51192E+006	347.459
240.4000	-2.2191E+006	347.601
240.3000	-2.27777E+006	347.743
240.2000	-2.14024E+006	347.888
240.1000	-1.67461E+006	348.036
240.0000	-1.82446E+006	348.19
239.9000	-1.80724E+006	348.344
239.8000	-1.86711E+006	348.496
239.7000	-1.8918E+006	348.645
239.6000	-1.99824E+006	348.795
239.5000	-2.11054E+006	348.955
239.4000	-1.74426E+006	349.12
239.3000	-1.77692E+006	349.288
239.2000	-1.42137E+006	349.456
239.1000	-880870	349.627
239.0000	-393561	349.805
238.9000	29191.8	349.989
238.8000	213450	350.173
238.7000	355520	350.357
238.6000	1675.08	350.528
238.5000	-119683	350.692
238.4000	-414554	350.857
238.3000	-933790	351.026
238.2000	-1.75158E+006	351.193
238.1000	-1.86628E+006	351.361
238.0000	-2.06882E+006	351.532
237.9000	-1.98424E+006	351.709
237.8000	-1.74716E+006	351.883
237.7000	-1.91082E+006	352.062
237.6000	-2.29473E+006	352.247
237.5000	-2.52366E+006	352.439
237.4000	-2.45698E+006	352.631
237.3000	-2.58873E+006	352.824
237.2000	-2.99039E+006	353.018
237.1000	-3.35278E+006	353.205
237.0000	-3.62167E+006	353.402
236.9000	-3.84822E+006	353.604
236.8000	-3.80291E+006	353.802
236.7000	-3.71181E+006	353.998
236.6000	-3.69079E+006	354.185
236.5000	-3.68768E+006	354.37
236.4000	-3.34551E+006	354.555
236.3000	-3.07637E+006	354.749
236.2000	-3.06923E+006	354.946
236.1000	-3.01288E+006	355.137
236.0000	-2.88622E+006	355.331
235.9000	-3.0356E+006	355.524
235.8000	-2.81188E+006	355.73
235.7000	-2.85618E+006	355.938
235.6000	-2.76966E+006	356.149
235.5000	-2.82275E+006	356.359
235.4000	-2.86724E+006	356.571
235.3000	-2.82877E+006	356.781
235.2000	-2.79621E+006	356.998
235.1000	-2.4551E+006	357.22
235.0000	-2.50118E+006	357.439
234.9000	-2.38499E+006	357.655
234.8000	-2.28602E+006	357.878
234.7000	-2.4297E+006	358.101
234.6000	-2.22524E+006	358.314
234.5000	-1.9528E+006	358.531
234.4000	-1.81536E+006	358.749
234.3000	-1.78039E+006	358.966
234.2000	-1.6525E+006	359.181
234.1000	-1.77375E+006	359.397
234.0000	-1.6554E+006	359.609
233.9000	-1.74357E+006	359.822
233.8000	-1.72918E+006	360.044
233.7000	-2.19998E+006	360.263
233.6000	-2.63496E+006	360.488
233.5000	-3.63437E+006	360.714
233.4000	-4.19445E+006	360.937
233.3000	-4.46527E+006	361.166
233.2000	-4.90888E+006	361.407
233.1000	-5.21188E+006	361.641
233.0000	-5.53997E+006	361.876
232.9000	-5.54433E+006	362.11
232.8000	-5.54068E+006	362.347
232.7000	-5.08862E+006	362.592
232.6000	-4.55056E+006	362.839
232.5000	-4.24706E+006	363.092
232.4000	-4.46827E+006	363.335
232.3000	-4.40167E+006	363.582
232.2000	-4.10616E+006	363.822
232.1000	-4.60085E+006	364.067
232.0000	-4.79737E+006	364.309
231.9000	-5.10075E+006	364.544
231.8000	-5.28511E+006	364.77
231.7000	-5.52612E+006	365.001
231.6000	-5.4101E+006	365.237
231.5000	-5.62876E+006	365.469
231.4000	-6.17545E+006	365.707
231.3000	-5.90088E+006	365.948
231.2000	-5.85713E+006	366.193
231.1000	-5.93822E+006	366.439
231.0000	-5.96724E+006	366.693
230.9000	-6.28935E+006	366.943
230.8000	-6.60619E+006	367.182
230.7000	-6.5875E+006	367.427
230.6000	-6.64232E+006	367.673
230.5000	-6.97465E+006	367.924
230.4000	-7.15417E+006	368.171
230.3000	-6.9878E+006	368.423
230.2000	-6.72656E+006	368.675
230.1000	-6.58728E+006	368.929
230.0000	-6.68059E+006	369.185
229.9000	-6.89124E+006	369.432
229.8000	-6.68061E+006	369.681
229.7000	-6.82234E+006	369.919
229.6000	-6.67836E+006	370.162
229.5000	-6.7569E+006	370.394
229.4000	-6.46326E+006	370.619
229.3000	-6.65171E+006	370.841
229.2000	-6.6087E+006	371.056
229.1000	-6.24572E+006	371.275
229.0000	-6.39212E+006	371.501
228.9000	-6.19546E+006	371.73
228.8000	-5.66626E+006	371.957
228.7000	-5.82129E+006	372.195
228.6000	-6.32996E+006	372.438
228.5000	-6.94347E+006	372.689
228.4000	-6.66565E+006	372.96
228.3000	-6.93653E+006	373.236
228.2000	-7.54927E+006	373.506
228.1000	-7.89773E+006	373.781
228.0000	-8.38931E+006	374.06
227.9000	-8.90073E+006	374.333
227.8000	-9.04309E+006	374.602
227.7000	-8.81633E+006	374.878
227.6000	-9.26646E+006	375.137
227.5000	-9.90139E+006	375.389
227.4000	-1.0184E+007	375.645
227.3000	-9.69034E+006	375.914
227.2000	-9.37747E+006	376.176
227.1000	-9.18855E+006	376.432
227.0000	-9.40833E+006	376.686
226.9000	-9.68729E+006	376.931
226.8000	-9.66612E+006	377.186
226.7000	-9.2302E+006	377.447
226.6000	-8.66613E+006	377.708
226.5000	-8.2639E+006	377.955
226.4000	-8.22589E+006	378.191
226.3000	-8.27669E+006	378.43
226.2000	-8.11974E+006	378.68
226.1000	-7.39594E+006	378.935
226.0000	-7.09897E+006	379.183
225.9000	-7.01474E+006	379.425
225.8000	-6.98801E+006	379.661
225.7000	-6.98653E+006	379.901
225.6000	-7.01945E+006	380.146
225.5000	-7.27017E+006	380.395
225.4000	-7.59974E+006	380.636
225.3000	-8.14108E+006	380.877
225.2000	-8.65121E+006	381.121
225.1000	-8.85288E+006	381.369
225.0000	-9.1569E+006	381.613
224.9000	-9.12615E+006	381.862
224.8000	-9.27331E+006	382.108
224.7000	-9.27992E+006	382.35
224.6000	-9.28501E+006	382.594
224.5000	-9.29954E+006	382.834
224.4000	-8.96891E+006	383.075
224.3000	-8.88825E+006	383.31
224.2000	-8.8069E+006	383.547
224.1000	-9.01331E+006	383.785
224.0000	-9.33081E+006	384.021
223.9000	-9.11708E+006	384.264
223.8000	-9.03331E+006	384.498
223.7000	-9.16923E+006	384.737
223.6000	-9.80897E+006	384.973
223.5000	-1.04193E+007	385.21
223.4000	-1.06521E+007	385.451
223.3000	-1.07176E+007	385.687
223.2000	-1.07354E+007	385.924
223.1000	-1.12536E+007	386.156
223.0000	-1.17524E+007	386.394
222.9000	-1.18184E+007	386.635
222.8000	-1.14872E+007	386.88
222.7000	-1.13492E+007	387.122
222.6000	-1.10446E+007	387.362
222.5000	-1.07817E+007	387.606
222.4000	-1.10793E+007	387.842
222.3000	-1.10319E+007	388.079
222.2000	-1.06374E+007	388.318
222.1000	-1.0581E+007	388.551
222.0000	-1.06035E+007	388.783
221.9000	-1.02588E+007	389.01
221.8000	-1.00489E+007	389.242
221.7000	-1.01339E+007	389.475
221.6000	-9.53743E+006	389.714
221.5000	-9.14604E+006	389.957
221.4000	-9.21482E+006	390.186
221.3000	-8.98122E+006	390.423
221.2000	-8.75504E+006	390.662
221.1000	-8.8588E+006	390.9
221.0000	-9.24614E+006	391.127
220.9000	-9.48308E+006	391.353
220.8000	-1.01548E+007	391.577
220.7000	-1.05253E+007	391.796
220.6000	-1.07298E+007	392.025
220.5000	-1.02746E+007	392.265
220.4000	-9.62649E+006	392.497
220.3000	-9.27778E+006	392.728
220.2000	-8.51599E+006	392.967
220.1000	-8.15017E+006	393.206
220.0000	-7.65498E+006	393.446
219.9000	-7.66438E+006	393.69
219.8000	-7.70912E+006	393.927
219.7000	-7.96787E+006	394.16
219.6000	-8.36004E+006	394.39
219.5000	-8.58825E+006	394.625
219.4000	-8.9973E+006	394.859
219.3000	-9.4337E+006	395.089
219.2000	-9.43092E+006	395.326
219.1000	-9.59253E+006	395.553
219.0000	-9.50863E+006	395.79
218.9000	-9.33108E+006	396.019
218.8000	-9.29189E+006	396.251
218.7000	-9.50102E+006	396.474
218.6000	-9.78448E+006	396.696
218.5000	-9.79761E+006	396.924
218.4000	-9.45963E+006	397.155
218.3000	-9.25276E+006	397.384
218.2000	-8.88855E+006	397.616
218.1000	-8.53816E+006	397.849
218.0000	-8.94915E+006	398.081
217.9000	-9.07492E+006	398.314
217.8000	-9.13095E+006	398.544
217.7000	-9.11868E+006	398.778
217.6000	-9.40236E+006	399.003
217.5000	-9.26679E+006	399.24
217.4000	-8.9557E+006	399.471
217.3000	-9.27264E+006	399.697
217.2000	-9.40442E+006	399.926
217.1000	-8.83789E+006	400.159
217.0000	-8.81163E+006	400.39
216.9000	-8.29981E+006	400.63
216.8000	-7.94867E+006	400.873
216.7000	-7.74287E+006	401.108
216.6000	-7.79573E+006	401.34
216.5000	-7.46942E+006	401.573
216.4000	-7.2037E+006	401.805
216.3000	-7.43621E+006	402.031
216.2000	-7.57361E+006	402.266
216.1000	-7.75125E+006	402.497
216.0000	-8.03172E+006	402.721
215.9000	-8.68849E+006	402.943
215.8000	-9.29588E+006	403.161
215.7000	-1.00468E+007	403.389
215.6000	-1.06119E+007	403.624
215.5000	-1.07982E+007	403.863
215.4000	-1.0539E+007	404.101
215.3000	-1.04839E+007	404.332
215.2000	-9.8838E+006	404.567
215.1000	-9.80484E+006	404.809
215.0000	-9.82088E+006	405.056
214.9000	-9.55967E+006	405.299
214.8000	-9.38609E+006	405.538
214.7000	-9.0989E+006	405.778
214.6000	-9.85255E+006	406.012
214.5000	-9.91389E+006	406.253
214.4000	-1.01311E+007	406.496
214.3000	-1.00073E+007	406.741
214.2000	-9.72412E+006	406.985
214.1000	-9.46933E+006	407.231
214.0000	-9.28417E+006	407.48
213.9000	-9.43328E+006	407.732
213.8000	-9.32732E+006	407.982
213.7000	-9.06517E+006	408.235
213.6000	-9.16784E+006	408.492
213.5000	-9.62651E+006	408.747
213.4000	-9.28829E+006	409.005
213.3000	-9.39136E+006	409.266
213.2000	-9.11062E+006	409.535
213.1000	-8.77981E+006	409.808
213.0000	-7.49459E+006	410.084
212.9000	-6.94187E+006	410.359
212.8000	-7.0831E+006	410.622
212.7000	-7.11962E+006	410.891
212.6000	-7.7235E+006	411.157
212.5000	-7.40615E+006	411.43
212.4000	-7.02444E+006	411.703
212.3000	-7.71435E+006	411.966
212.2000	-8.47409E+006	412.229
212.1000	-9.08047E+006	412.5
212.0000	-9.21782E+006	412.783
211.9000	-8.19979E+006	413.079
211.8000	-7.74739E+006	413.368
211.7000	-8.31703E+006	413.657
211.6000	-8.42973E+006	413.954
211.5000	-8.19021E+006	414.251
211.4000	-7.42936E+006	414.558
211.3000	-6.88574E+006	414.859
211.2000	-6.16018E+006	415.157
211.1000	-6.33908E+006	415.454
211.0000	-6.83545E+006	415.752
210.9000	-6.41859E+006	416.052
210.8000	-6.57618E+006	416.351
210.7000	-6.72502E+006	416.658
210.6000	-6.79679E+006	416.96
210.5000	-7.76483E+006	417.264
210.4000	-7.8755E+006	417.577
210.3000	-8.30834E+006	417.895
210.2000	-8.70818E+006	418.208
210.1000	-9.12731E+006	418.525
210.0000	-9.62799E+006	418.841
209.9000	-1.03001E+007	419.156
209.8000	-1.08341E+007	419.473
209.7000	-1.09422E+007	419.798
209.6000	-1.14506E+007	420.122
209.5000	-1.19375E+007	420.452
209.4000	-1.17348E+007	420.78
209.3000	-1.14003E+007	421.11
209.2000	-1.13892E+007	421.446
209.1000	-1.10682E+007	421.781
209.0000	-1.08427E+007	422.115
208.9000	-1.05453E+007	422.457
208.8000	-9.9862E+006	422.795
208.7000	-9.63026E+006	423.126
208.6000	-9.07627E+006	423.469
208.5000	-8.90861E+006	423.82
208.4000	-8.55533E+006	424.175
208.3000	-8.12629E+006	424.534
208.2000	-8.59966E+006	424.889
208.1000	-9.09467E+006	425.242
208.0000	-9.3666E+006	425.599
207.9000	-9.04162E+006	425.966
207.8000	-9.57122E+006	426.33
207.7000	-9.6505E+006	426.695
207.6000	-9.45692E+006	427.06
207.5000	-9.29742E+006	427.417
207.4000	-9.30187E+006	427.78
207.3000	-8.65261E+006	428.145
207.2000	-8.57674E+006	428.505
207.1000	-9.0975E+006	428.866
207.0000	-9.11074E+006	429.235
206.9000	-8.95814E+006	429.599
206.8000	-8.99014E+006	429.961
206.7000	-9.47356E+006	430.323
206.6000	-9.51394E+006	430.692
206.5000	-9.34355E+006	431.067
206.4000	-9.3964E+006	431.443
206.3000	-9.68483E+006	431.819
206.2000	-1.00054E+007	432.185
206.1000	-1.0834E+007	432.547
206.0000	-1.1472E+007	432.914
205.9000	-1.12376E+007	433.294
205.8000	-1.11513E+007	433.669
205.7000	-1.19591E+007	434.044
205.6000	-1.19345E+007	434.425
205.5000	-1.15844E+007	434.812
205.4000	-1.08678E+007	435.2
205.3000	-1.05504E+007	435.595
205.2000	-1.00696E+007	435.995
205.1000	-9.13006E+006	436.398
205.0000	-8.81649E+006	436.798
204.9000	-8.46113E+006	437.199
204.8000	-8.05576E+006	437.6
204.7000	-7.73263E+006	438.005
204.6000	-7.48591E+006	438.411
204.5000	-6.94183E+006	438.82
204.4000	-6.5363E+006	439.231
204.3000	-6.58613E+006	439.648
204.2000	-6.68612E+006	440.067
204.1000	-6.47736E+006	440.489
204.0000	-5.70533E+006	440.919
203.9000	-5.16015E+006	441.353
203.8000	-4.8958E+006	441.795
203.7000	-4.83092E+006	442.243
203.6000	-5.09834E+006	442.69
203.5000	-4.9896E+006	443.136
203.4000	-4.75569E+006	443.588
203.3000	-4.63605E+006	444.048
203.2000	-4.15922E+006	444.519
203.1000	-4.6953E+006	444.988
203.0000	-5.50031E+006	445.457
202.9000	-5.70467E+006	445.933
202.8000	-5.74443E+006	446.41
202.7000	-5.043E+006	446.901
202.6000	-4.20505E+006	447.388
202.5000	-4.36534E+006	447.875
202.4000	-4.16382E+006	448.368
202.3000	-3.74447E+006	448.871
202.2000	-2.15896E+006	449.38
202.1000	-628320	449.885
202.0000	-220730	450.395
201.9000	350983	450.918
201.8000	279789	451.442
201.7000	653663	451.983
201.6000	1.09489E+006	452.536
201.5000	1.06513E+006	453.083
201.4000	697981	453.637
201.3000	38038.5	454.203
201.2000	-114644	454.781
201.1000	736433	455.368
201.0000	743100	455.961
200.9000	1.02787E+006	456.557
200.8000	1.59776E+006	457.158
200.7000	2.55969E+006	457.77
200.6000	3.69751E+006	458.403
200.5000	4.33193E+006	459.037
200.4000	4.51544E+006	459.69
200.3000	4.35306E+006	460.348
200.2000	4.73345E+006	461.021
200.1000	5.13229E+006	461.704
200.0000	5.03313E+006	462.396
199.9000	5.45994E+006	463.1
199.8000	5.40456E+006	463.8
199.7000	5.86448E+006	464.505
199.6000	6.82744E+006	465.222
199.5000	9.25294E+006	465.955
199.4000	1.01616E+007	466.689
199.3000	9.94751E+006	467.423
199.2000	1.0088E+007	468.177
199.1000	9.86253E+006	468.943
199.0000	9.73877E+006	469.733
198.9000	9.32689E+006	470.549
198.8000	8.30189E+006	471.383
198.7000	7.90306E+006	472.242
198.6000	7.87162E+006	473.123
198.5000	9.47868E+006	474.041
198.4000	1.19702E+007	474.986
198.3000	1.38669E+007	475.952
198.2000	1.42359E+007	476.938
198.1000	1.49317E+007	477.956
198.0000	1.66039E+007	479.006
197.9000	1.75878E+007	480.088
197.8000	1.72981E+007	481.199
197.7000	1.61067E+007	482.339
197.6000	1.38059E+007	483.498
197.5000	1.19032E+007	484.685
197.4000	1.23419E+007	485.9
197.3000	1.38131E+007	487.127
197.2000	1.33672E+007	488.334
197.1000	1.26727E+007	489.524
197.0000	1.20206E+007	490.71
196.9000	1.27666E+007	491.904
196.8000	1.39888E+007	493.11
196.7000	1.59729E+007	494.34
196.6000	1.58737E+007	495.585
196.5000	1.58856E+007	496.873
196.4000	1.65763E+007	498.232
196.3000	1.72726E+007	499.667
196.2000	1.87662E+007	501.179
196.1000	1.95076E+007	502.765
196.0000	2.02691E+007	504.433
195.9000	2.04759E+007	506.19
195.8000	2.19287E+007	508.052
195.7000	2.33797E+007	510.038
195.6000	2.3466E+007	512.131
195.5000	2.38868E+007	514.362
195.4000	2.39899E+007	516.717
195.3000	2.42996E+007	519.173
195.2000	2.38986E+007	521.715
195.1000	2.3477E+007	524.327
195.0000	2.34132E+007	526.947
194.9000	2.14684E+007	529.502
194.8000	1.86829E+007	531.958
194.7000	1.78218E+007	534.303
194.6000	1.60301E+007	536.53
194.5000	1.5564E+007	538.678
194.4000	1.5964E+007	540.768
194.3000	1.63345E+007	542.815
194.2000	1.5662E+007	544.878
194.1000	1.54312E+007	547.05
194.0000	1.6686E+007	549.397
193.9000	1.92341E+007	551.979
193.8000	2.19593E+007	554.816
193.7000	2.35417E+007	557.933
193.6000	2.35931E+007	561.329
193.5000	2.27446E+007	565.078
193.4000	2.41578E+007	569.236
193.3000	2.46958E+007	573.79
193.2000	2.63409E+007	578.735
193.1000	2.72506E+007	584.025
193.0000	2.9048E+007	589.624
192.9000	3.08732E+007	595.442
192.8000	3.25663E+007	601.398
192.7000	3.49676E+007	607.316
192.6000	3.24796E+007	612.916
192.5000	3.21063E+007	618.13
192.4000	3.4888E+007	622.917
192.3000	3.25111E+007	627.236
192.2000	2.98126E+007	631.137
192.1000	2.83442E+007	634.702
192.0000	2.6992E+007	638.001
191.9000	2.69771E+007	641.243
191.8000	2.98891E+007	644.718
191.7000	3.39937E+007	648.661
191.6000	3.09737E+007	653.122
191.5000	3.05434E+007	658.213
191.4000	3.16227E+007	663.947
191.3000	2.91579E+007	670.393
191.2000	2.92562E+007	677.631
191.1000	2.8531E+007	685.632
191.0000	3.19097E+007	694.378
190.9000	3.47316E+007	703.711
190.8000	4.27872E+007	713.526
190.7000	4.14048E+007	723.638
190.6000	4.35756E+007	734.023
190.5000	5.2423E+007	744.434
190.4000	5.95672E+007	754.469
190.3000	6.16914E+007	763.895
190.2000	6.36691E+007	772.634
190.1000	6.26075E+007	780.596
190.0000	5.56136E+007	787.807

##### Extended Information
[Comments]
Sample name	ACE2_D2_0.3uM
Comment
User
Division
Company	CSIR-IMTECH

[Detailed Information]
Creation date	2/26/2024 3:54 PM

Data array type	Linear data array * 2
Horizontal axis	Wavelength [nm]
Vertical axis(1)	Mol. Ellip.
Vertical axis(2)	HT [V]
Start	350 nm
End	190 nm
Data interval	0.1 nm
Data points	1601    

[Measurement Information]
Instrument Name	JASCO CD
Model Name	J-815
Serial No.	B063061168

Accessory	PTC-423S
Accessory S/N	C013945-01
  Temperature	37.94 C
  Control Sonsor	Cell
  Monitor Sensor	Cell
  Start Mode	Start immediately
  Cell Length	10 mm

Measurement date	2/26/2024 3:53 PM

Photometric Mode	CD, HT
Measure Range	350 - 190 nm
Data pitch	0.1 nm
Sensitivity	Standard
D.I.T.	1 sec
Bandwidth	1.00 nm
Start Mode	Immediately
Scanning Speed	50 nm/min
Baseline Correction	Baseline
Shutter Control	Manual
CD Detector	PMT
PMT Voltage	Auto
Accumulations	3
Concentration	0.3 umol/L

