TITLE	D2_1.0uM
DATA TYPE	
ORIGIN	JASCO
OWNER	
DATE	24/03/11
TIME	14:19:57
SPECTROMETER/DATA SYSTEM	
LOCALE	1033
RESOLUTION	
DELTAX	-0.1
XUNITS	NANOMETERS
YUNITS	CD [mdeg]
Y2UNITS	HT [V]
FIRSTX	  350.0000
LASTX	  190.0000
NPOINTS	    1601
FIRSTY	    -0.07474
MAXY	     2.50207
MINY	    -0.99569
XYDATA
350.0000	-0.0747404	473.605
349.9000	-0.0239287	473.005
349.8000	0.147927	472.12
349.7000	0.564149	471.235
349.6000	0.503646	470.579
349.5000	0.454297	470.002
349.4000	0.39425	469.126
349.3000	0.309521	468.497
349.2000	0.234665	467.964
349.1000	0.0365073	467.129
349.0000	-0.090873	466.514
348.9000	-0.24001	465.964
348.8000	-0.45989	465.095
348.7000	-0.651444	464.213
348.6000	-0.647058	463.572
348.5000	-0.643545	463.014
348.4000	-0.479948	462.135
348.3000	-0.413357	461.473
348.2000	-0.2508	460.884
348.1000	-0.0891519	460.036
348.0000	-0.0475544	459.42
347.9000	0.0592989	458.889
347.8000	0.271052	458.071
347.7000	0.295744	457.235
347.6000	0.160505	456.636
347.5000	0.0765474	456.138
347.4000	0.0196016	455.355
347.3000	-0.126393	454.755
347.2000	-0.253526	454.224
347.1000	-0.173072	453.444
347.0000	-0.192516	452.872
346.9000	-0.04329	452.381
346.8000	-0.0177875	451.612
346.7000	0.0868786	450.836
346.6000	0.22187	450.266
346.5000	0.230544	449.523
346.4000	0.179203	448.77
346.3000	0.0688234	448.191
346.2000	-0.0569751	447.433
346.1000	-0.341919	446.662
346.0000	-0.4709	446.102
345.9000	-0.535908	445.619
345.8000	-0.561266	444.846
345.7000	-0.566869	444.268
345.6000	-0.613451	443.763
345.5000	-0.511135	443.046
345.4000	-0.584116	442.518
345.3000	-0.540111	442.063
345.2000	-0.506829	441.353
345.1000	-0.373639	440.634
345.0000	-0.348459	440.111
344.9000	-0.255594	439.443
344.8000	-0.0735767	438.766
344.7000	-0.0543364	438.241
344.6000	-0.0960336	437.573
344.5000	-0.0948637	436.898
344.4000	-0.217624	436.4
344.3000	-0.382168	435.736
344.2000	-0.430544	435.067
344.1000	-0.470959	434.567
344.0000	-0.501532	433.932
343.9000	-0.415951	433.292
343.8000	-0.372206	432.813
343.7000	-0.290711	432.389
343.6000	-0.195749	431.722
343.5000	-0.0859333	431.234
343.4000	-0.187482	430.817
343.3000	-0.157785	430.175
343.2000	-0.26423	429.688
343.1000	-0.359719	429.259
343.0000	-0.392519	428.645
342.9000	-0.291491	428.028
342.8000	-0.245714	427.58
342.7000	-0.162751	426.99
342.6000	-0.0586658	426.39
342.5000	-0.0603392	425.944
342.4000	0.00337438	425.377
342.3000	0.0924603	424.806
342.2000	0.0706016	424.365
342.1000	-0.0286294	423.79
342.0000	0.14163	423.214
341.9000	0.12612	422.794
341.8000	0.00762853	422.232
341.7000	0.00295324	421.667
341.6000	-0.0543923	421.244
341.5000	-0.0701598	420.698
341.4000	-0.0701608	420.141
341.3000	-0.100143	419.724
341.2000	-0.287929	419.162
341.1000	-0.436287	418.593
341.0000	-0.344798	418.183
340.9000	-0.361507	417.633
340.8000	-0.3566	417.077
340.7000	-0.415135	416.649
340.6000	-0.459367	416.126
340.5000	-0.362208	415.598
340.4000	-0.206072	415.211
340.3000	-0.0344928	414.688
340.2000	-0.0599272	414.151
340.1000	-0.177424	413.754
340.0000	-0.204153	413.257
339.9000	-0.217735	412.755
339.8000	-0.197457	412.37
339.7000	-0.228075	411.869
339.6000	-0.384823	411.36
339.5000	-0.432995	410.998
339.4000	-0.423481	410.527
339.3000	-0.444875	410.038
339.2000	-0.391599	409.51
339.1000	-0.376214	409.033
339.0000	-0.448328	408.54
338.9000	-0.658424	408
338.8000	-0.601778	407.521
338.7000	-0.598879	407.03
338.6000	-0.681498	406.49
338.5000	-0.605479	406.014
338.4000	-0.492375	405.658
338.3000	-0.463303	405.226
338.2000	-0.292589	404.796
338.1000	-0.0742237	404.486
338.0000	-0.0335153	404.057
337.9000	-0.116749	403.62
337.8000	-0.130927	403.316
337.7000	-0.0883564	402.919
337.6000	-0.122865	402.514
337.5000	-0.158665	402.202
337.4000	-0.226366	401.784
337.3000	-0.214622	401.356
337.2000	-0.184327	400.892
337.1000	-0.0168893	400.487
337.0000	0.0251232	400.066
336.9000	0.0125286	399.609
336.8000	-0.0501789	399.201
336.7000	-0.0236815	398.791
336.6000	-0.00115036	398.344
336.5000	-0.143058	397.936
336.4000	-0.151231	397.647
336.3000	-0.268194	397.241
336.2000	-0.351144	396.829
336.1000	-0.493276	396.523
336.0000	-0.604692	396.149
335.9000	-0.638809	395.763
335.8000	-0.606669	395.335
335.7000	-0.54782	394.954
335.6000	-0.583318	394.563
335.5000	-0.637869	394.166
335.4000	-0.738616	393.826
335.3000	-0.714586	393.481
335.2000	-0.570473	393.094
335.1000	-0.634281	392.733
335.0000	-0.681079	392.485
334.9000	-0.663736	392.155
334.8000	-0.759913	391.808
334.7000	-0.689333	391.428
334.6000	-0.554201	391.089
334.5000	-0.425219	390.741
334.4000	-0.400018	390.351
334.3000	-0.437398	390.001
334.2000	-0.445551	389.649
334.1000	-0.471821	389.265
334.0000	-0.369048	388.931
333.9000	-0.355409	388.69
333.8000	-0.400213	388.37
333.7000	-0.435421	388.04
333.6000	-0.415674	387.67
333.5000	-0.28664	387.348
333.4000	-0.275525	387.017
333.3000	-0.326452	386.666
333.2000	-0.395088	386.354
333.1000	-0.449985	386.036
333.0000	-0.407306	385.702
332.9000	-0.272905	385.405
332.8000	-0.218679	385.074
332.7000	-0.316206	384.781
332.6000	-0.359996	384.484
332.5000	-0.260196	384.156
332.4000	-0.268157	383.86
332.3000	-0.320271	383.558
332.2000	-0.426174	383.213
332.1000	-0.640019	382.89
332.0000	-0.873669	382.544
331.9000	-0.884847	382.253
331.8000	-0.735568	381.962
331.7000	-0.661396	381.641
331.6000	-0.557467	381.352
331.5000	-0.481771	380.941
331.4000	-0.452528	380.613
331.3000	-0.432748	380.324
331.2000	-0.372622	380.015
331.1000	-0.412192	379.74
331.0000	-0.545552	379.456
330.9000	-0.676242	379.157
330.8000	-0.818352	378.888
330.7000	-0.922786	378.585
330.6000	-0.958104	378.319
330.5000	-0.880807	378.054
330.4000	-0.742768	377.769
330.3000	-0.633333	377.515
330.2000	-0.568378	377.15
330.1000	-0.583015	376.853
330.0000	-0.47767	376.589
329.9000	-0.389214	376.302
329.8000	-0.263384	376.052
329.7000	-0.20762	375.712
329.6000	-0.241151	375.437
329.5000	-0.238773	375.197
329.4000	-0.273327	374.916
329.3000	-0.245319	374.664
329.2000	-0.361019	374.308
329.1000	-0.407255	374.032
329.0000	-0.446577	373.794
328.9000	-0.427465	373.528
328.8000	-0.442746	373.289
328.7000	-0.468742	372.956
328.6000	-0.438276	372.703
328.5000	-0.377718	372.494
328.4000	-0.222347	372.248
328.3000	-0.146723	372.028
328.2000	-0.0841714	371.754
328.1000	-0.0665536	371.546
328.0000	-0.110094	371.366
327.9000	-0.0674376	371.109
327.8000	-0.0830748	370.88
327.7000	-0.0773029	370.638
327.6000	-0.123006	370.475
327.5000	-0.187305	370.351
327.4000	-0.229041	370.077
327.3000	-0.198147	369.811
327.2000	-0.234727	369.522
327.1000	-0.222394	369.34
327.0000	-0.123932	369.209
326.9000	-0.087096	368.927
326.8000	-0.179819	368.626
326.7000	-0.175384	368.317
326.6000	-0.159578	368.147
326.5000	-0.183549	368.042
326.4000	-0.162601	367.773
326.3000	-0.148926	367.493
326.2000	-0.276284	367.218
326.1000	-0.366653	367.055
326.0000	-0.259979	366.761
325.9000	-0.186074	366.466
325.8000	-0.174042	366.166
325.7000	-0.176842	365.903
325.6000	-0.133457	365.772
325.5000	-0.070646	365.498
325.4000	-0.055671	365.211
325.3000	-0.0884083	364.911
325.2000	-0.128526	364.782
325.1000	-0.192555	364.729
325.0000	-0.146083	364.494
324.9000	-0.238897	364.223
324.8000	-0.347072	363.945
324.7000	-0.414077	363.824
324.6000	-0.413902	363.783
324.5000	-0.346088	363.537
324.4000	-0.351919	363.254
324.3000	-0.305478	362.984
324.2000	-0.324376	362.838
324.1000	-0.347332	362.549
324.0000	-0.337245	362.247
323.9000	-0.378522	361.924
323.8000	-0.33888	361.65
323.7000	-0.414926	361.513
323.6000	-0.485999	361.259
323.5000	-0.498482	360.984
323.4000	-0.502724	360.727
323.3000	-0.499069	360.622
323.2000	-0.446233	360.589
323.1000	-0.413639	360.384
323.0000	-0.442324	360.133
322.9000	-0.383344	359.867
322.8000	-0.228783	359.738
322.7000	-0.156089	359.485
322.6000	-0.164281	359.191
322.5000	-0.171204	358.898
322.4000	-0.168566	358.605
322.3000	-0.150973	358.427
322.2000	-0.0621987	358.108
322.1000	-0.126943	357.769
322.0000	-0.21785	357.461
321.9000	-0.345059	357.29
321.8000	-0.413695	357.026
321.7000	-0.489658	356.748
321.6000	-0.489669	356.462
321.5000	-0.535912	356.204
321.4000	-0.52981	356.109
321.3000	-0.557616	355.964
321.2000	-0.623847	355.796
321.1000	-0.61814	355.61
321.0000	-0.573402	355.558
320.9000	-0.477098	355.427
320.8000	-0.362636	355.297
320.7000	-0.284587	355.163
320.6000	-0.36116	355.012
320.5000	-0.45617	354.955
320.4000	-0.469316	354.767
320.3000	-0.465531	354.573
320.2000	-0.452835	354.394
320.1000	-0.48535	354.312
320.0000	-0.517901	354.159
319.9000	-0.622799	353.986
319.8000	-0.605022	353.796
319.7000	-0.469833	353.6
319.6000	-0.300546	353.409
319.5000	-0.229621	353.278
319.4000	-0.201649	353.128
319.3000	-0.255359	352.928
319.2000	-0.293864	352.815
319.1000	-0.250633	352.632
319.0000	-0.244072	352.449
318.9000	-0.327473	352.229
318.8000	-0.425781	352.091
318.7000	-0.519991	351.87
318.6000	-0.549278	351.644
318.5000	-0.55236	351.434
318.4000	-0.612805	351.227
318.3000	-0.743389	351.012
318.2000	-0.737352	350.843
318.1000	-0.748457	350.695
318.0000	-0.74577	350.52
317.9000	-0.794306	350.435
317.8000	-0.850497	350.32
317.7000	-0.874889	350.206
317.6000	-0.758869	350.046
317.5000	-0.636001	349.945
317.4000	-0.594329	349.784
317.3000	-0.555772	349.615
317.2000	-0.539519	349.42
317.1000	-0.532611	349.224
317.0000	-0.476931	348.978
316.9000	-0.461475	348.752
316.8000	-0.574528	348.544
316.7000	-0.641749	348.348
316.6000	-0.644378	348.148
316.5000	-0.683508	347.975
316.4000	-0.613923	347.805
316.3000	-0.575182	347.647
316.2000	-0.571793	347.498
316.1000	-0.566437	347.386
316.0000	-0.455209	347.288
315.9000	-0.372722	347.149
315.8000	-0.323266	347.055
315.7000	-0.301226	346.903
315.6000	-0.332477	346.774
315.5000	-0.335782	346.599
315.4000	-0.269276	346.471
315.3000	-0.303018	346.258
315.2000	-0.388824	346.037
315.1000	-0.426777	345.834
315.0000	-0.495131	345.642
314.9000	-0.556366	345.473
314.8000	-0.597993	345.326
314.7000	-0.657568	345.171
314.6000	-0.751068	345.029
314.5000	-0.760389	344.901
314.4000	-0.681242	344.812
314.3000	-0.630563	344.684
314.2000	-0.55241	344.558
314.1000	-0.514627	344.399
314.0000	-0.448183	344.246
313.9000	-0.363502	344.075
313.8000	-0.25199	343.917
313.7000	-0.236128	343.703
313.6000	-0.289514	343.501
313.5000	-0.317262	343.32
313.4000	-0.292576	343.155
313.3000	-0.298411	342.999
313.2000	-0.293614	342.866
313.1000	-0.334313	342.715
313.0000	-0.352253	342.578
312.9000	-0.371553	342.464
312.8000	-0.346395	342.384
312.7000	-0.2549	342.26
312.6000	-0.246739	342.134
312.5000	-0.272851	341.978
312.4000	-0.240187	341.83
312.3000	-0.32848	341.648
312.2000	-0.369739	341.483
312.1000	-0.419243	341.267
312.0000	-0.448775	341.059
311.9000	-0.527671	340.859
311.8000	-0.676335	340.652
311.7000	-0.78983	340.484
311.6000	-0.851353	340.277
311.5000	-0.870656	340.119
311.4000	-0.895088	339.958
311.3000	-0.888046	339.855
311.2000	-0.870347	339.732
311.1000	-0.839409	339.636
311.0000	-0.784255	339.537
310.9000	-0.72573	339.45
310.8000	-0.739013	339.342
310.7000	-0.764443	339.257
310.6000	-0.804898	339.136
310.5000	-0.820705	339.024
310.4000	-0.768655	338.92
310.3000	-0.748923	338.833
310.2000	-0.724635	338.753
310.1000	-0.664852	338.679
310.0000	-0.596073	338.592
309.9000	-0.52774	338.52
309.8000	-0.470055	338.467
309.7000	-0.389653	338.364
309.6000	-0.33562	338.285
309.5000	-0.370456	338.179
309.4000	-0.373404	338.087
309.3000	-0.431684	337.933
309.2000	-0.506986	337.817
309.1000	-0.590026	337.672
309.0000	-0.579613	337.539
308.9000	-0.557384	337.417
308.8000	-0.607668	337.313
308.7000	-0.650188	337.211
308.6000	-0.629882	337.121
308.5000	-0.572856	337.018
308.4000	-0.524479	336.919
308.3000	-0.453456	336.858
308.2000	-0.415729	336.741
308.1000	-0.411001	336.656
308.0000	-0.400014	336.563
307.9000	-0.380093	336.481
307.8000	-0.378527	336.337
307.7000	-0.441061	336.23
307.6000	-0.466588	336.12
307.5000	-0.564799	335.951
307.4000	-0.59864	335.831
307.3000	-0.702819	335.717
307.2000	-0.733118	335.622
307.1000	-0.69234	335.476
307.0000	-0.673227	335.374
306.9000	-0.647655	335.286
306.8000	-0.586734	335.223
306.7000	-0.536473	335.144
306.6000	-0.484015	335.062
306.5000	-0.408318	334.992
306.4000	-0.362814	334.861
306.3000	-0.407228	334.767
306.2000	-0.495377	334.66
306.1000	-0.561827	334.557
306.0000	-0.631792	334.405
305.9000	-0.696815	334.303
305.8000	-0.70954	334.234
305.7000	-0.67686	334.107
305.6000	-0.692652	334.022
305.5000	-0.778951	333.95
305.4000	-0.819888	333.903
305.3000	-0.762084	333.804
305.2000	-0.781828	333.734
305.1000	-0.77156	333.667
305.0000	-0.749586	333.54
304.9000	-0.700794	333.457
304.8000	-0.68388	333.367
304.7000	-0.650937	333.287
304.6000	-0.605028	333.158
304.5000	-0.59317	333.058
304.4000	-0.599984	332.985
304.3000	-0.575236	332.867
304.2000	-0.56221	332.798
304.1000	-0.623855	332.742
304.0000	-0.658418	332.706
303.9000	-0.664361	332.619
303.8000	-0.641303	332.55
303.7000	-0.61257	332.509
303.6000	-0.565699	332.413
303.5000	-0.548163	332.352
303.4000	-0.489958	332.282
303.3000	-0.495163	332.176
303.2000	-0.508188	332.072
303.1000	-0.556746	331.991
303.0000	-0.633031	331.939
302.9000	-0.696267	331.84
302.8000	-0.751444	331.767
302.7000	-0.788922	331.714
302.6000	-0.861942	331.626
302.5000	-0.907991	331.573
302.4000	-0.946177	331.518
302.3000	-0.888253	331.426
302.2000	-0.794053	331.337
302.1000	-0.735798	331.256
302.0000	-0.727421	331.203
301.9000	-0.716505	331.117
301.8000	-0.721655	331.049
301.7000	-0.712983	330.998
301.6000	-0.685842	330.912
301.5000	-0.651416	330.865
301.4000	-0.684852	330.819
301.3000	-0.722241	330.744
301.2000	-0.720474	330.678
301.1000	-0.719831	330.62
301.0000	-0.746401	330.59
300.9000	-0.705555	330.521
300.8000	-0.724578	330.45
300.7000	-0.77886	330.394
300.6000	-0.792518	330.316
300.5000	-0.750703	330.26
300.4000	-0.686371	330.22
300.3000	-0.634431	330.149
300.2000	-0.598629	330.082
300.1000	-0.580719	330.026
300.0000	-0.581228	329.965
299.9000	-0.554793	329.915
299.8000	-0.572997	329.863
299.7000	-0.594093	329.798
299.6000	-0.611192	329.737
299.5000	-0.608808	329.677
299.4000	-0.671704	329.628
299.3000	-0.697803	329.558
299.2000	-0.650759	329.506
299.1000	-0.629934	329.467
299.0000	-0.636835	329.402
298.9000	-0.663825	329.351
298.8000	-0.724741	329.312
298.7000	-0.744763	329.255
298.6000	-0.687881	329.21
298.5000	-0.670505	329.166
298.4000	-0.705199	329.108
298.3000	-0.673756	329.056
298.2000	-0.634912	329.006
298.1000	-0.610713	328.95
298.0000	-0.533595	328.9
297.9000	-0.562342	328.855
297.8000	-0.63887	328.788
297.7000	-0.662967	328.737
297.6000	-0.656558	328.7
297.5000	-0.707051	328.641
297.4000	-0.735104	328.597
297.3000	-0.752737	328.561
297.2000	-0.738002	328.505
297.1000	-0.725797	328.463
297.0000	-0.681018	328.419
296.9000	-0.656787	328.354
296.8000	-0.609665	328.304
296.7000	-0.597988	328.26
296.6000	-0.564495	328.23
296.5000	-0.522414	328.186
296.4000	-0.483334	328.149
296.3000	-0.441317	328.121
296.2000	-0.39585	328.085
296.1000	-0.323209	328.056
296.0000	-0.345843	328.029
295.9000	-0.383281	327.986
295.8000	-0.417254	327.923
295.7000	-0.453418	327.88
295.6000	-0.513123	327.837
295.5000	-0.541582	327.773
295.4000	-0.547346	327.705
295.3000	-0.63168	327.665
295.2000	-0.686095	327.607
295.1000	-0.654103	327.549
295.0000	-0.664258	327.522
294.9000	-0.722349	327.473
294.8000	-0.722189	327.416
294.7000	-0.733475	327.386
294.6000	-0.818294	327.353
294.5000	-0.824215	327.302
294.4000	-0.798934	327.269
294.3000	-0.81346	327.235
294.2000	-0.846678	327.182
294.1000	-0.822787	327.146
294.0000	-0.804017	327.118
293.9000	-0.811512	327.072
293.8000	-0.80989	327.044
293.7000	-0.77452	327.019
293.6000	-0.75658	326.971
293.5000	-0.762948	326.918
293.4000	-0.727933	326.892
293.3000	-0.694112	326.848
293.2000	-0.688744	326.795
293.1000	-0.668699	326.767
293.0000	-0.663205	326.721
292.9000	-0.635463	326.67
292.8000	-0.649017	326.645
292.7000	-0.569398	326.626
292.6000	-0.559755	326.586
292.5000	-0.562882	326.539
292.4000	-0.512155	326.519
292.3000	-0.541529	326.48
292.2000	-0.516908	326.433
292.1000	-0.532646	326.409
292.0000	-0.555486	326.367
291.9000	-0.613351	326.312
291.8000	-0.618608	326.261
291.7000	-0.58792	326.235
291.6000	-0.582345	326.187
291.5000	-0.591757	326.131
291.4000	-0.654622	326.097
291.3000	-0.726218	326.043
291.2000	-0.686387	325.98
291.1000	-0.708751	325.915
291.0000	-0.772212	325.865
290.9000	-0.801661	325.791
290.8000	-0.83205	325.698
290.7000	-0.908392	325.596
290.6000	-0.8647	325.489
290.5000	-0.810873	325.362
290.4000	-0.749079	325.23
290.3000	-0.718937	325.116
290.2000	-0.699601	324.986
290.1000	-0.694641	324.853
290.0000	-0.72053	324.738
289.9000	-0.695345	324.668
289.8000	-0.667073	324.609
289.7000	-0.679407	324.574
289.6000	-0.746363	324.57
289.5000	-0.786597	324.605
289.4000	-0.831523	324.657
289.3000	-0.824416	324.735
289.2000	-0.785148	324.828
289.1000	-0.7693	324.935
289.0000	-0.769829	325.03
288.9000	-0.779456	325.12
288.8000	-0.770985	325.196
288.7000	-0.758998	325.262
288.6000	-0.768756	325.306
288.5000	-0.735492	325.337
288.4000	-0.749892	325.35
288.3000	-0.7457	325.356
288.2000	-0.720255	325.355
288.1000	-0.67808	325.346
288.0000	-0.691988	325.331
287.9000	-0.683122	325.302
287.8000	-0.660065	325.284
287.7000	-0.732997	325.264
287.6000	-0.76289	325.243
287.5000	-0.785025	325.213
287.4000	-0.844929	325.191
287.3000	-0.897892	325.167
287.2000	-0.950248	325.147
287.1000	-0.953939	325.127
287.0000	-0.985172	325.09
286.9000	-0.962623	325.07
286.8000	-0.962247	325.053
286.7000	-0.960275	325.038
286.6000	-0.939192	325.006
286.5000	-0.938713	324.993
286.4000	-0.893549	324.988
286.3000	-0.933877	324.981
286.2000	-0.993501	324.977
286.1000	-0.993658	324.959
286.0000	-0.973327	324.956
285.9000	-0.932352	324.951
285.8000	-0.916773	324.95
285.7000	-0.897948	324.933
285.6000	-0.841957	324.908
285.5000	-0.79558	324.905
285.4000	-0.745626	324.907
285.3000	-0.695554	324.908
285.2000	-0.670803	324.894
285.1000	-0.685571	324.877
285.0000	-0.689775	324.88
284.9000	-0.719022	324.879
284.8000	-0.794378	324.881
284.7000	-0.823649	324.87
284.6000	-0.813969	324.854
284.5000	-0.79484	324.861
284.4000	-0.824955	324.871
284.3000	-0.822816	324.884
284.2000	-0.798377	324.878
284.1000	-0.722441	324.871
284.0000	-0.646205	324.86
283.9000	-0.584529	324.867
283.8000	-0.592372	324.878
283.7000	-0.638147	324.874
283.6000	-0.678992	324.862
283.5000	-0.703737	324.85
283.4000	-0.695275	324.84
283.3000	-0.746249	324.85
283.2000	-0.754454	324.863
283.1000	-0.802166	324.859
283.0000	-0.858122	324.844
282.9000	-0.868597	324.827
282.8000	-0.814774	324.814
282.7000	-0.771363	324.82
282.6000	-0.808531	324.827
282.5000	-0.84994	324.824
282.4000	-0.949412	324.811
282.3000	-0.973247	324.804
282.2000	-0.995695	324.802
282.1000	-0.957229	324.822
282.0000	-0.922255	324.84
281.9000	-0.974204	324.844
281.8000	-0.994916	324.842
281.7000	-0.981745	324.838
281.6000	-0.947626	324.838
281.5000	-0.945188	324.839
281.4000	-0.902865	324.859
281.3000	-0.81949	324.869
281.2000	-0.840028	324.867
281.1000	-0.821348	324.861
281.0000	-0.759703	324.86
280.9000	-0.745137	324.857
280.8000	-0.737588	324.852
280.7000	-0.696926	324.849
280.6000	-0.666169	324.849
280.5000	-0.689757	324.841
280.4000	-0.700167	324.829
280.3000	-0.673593	324.822
280.2000	-0.633662	324.81
280.1000	-0.546765	324.804
280.0000	-0.49405	324.794
279.9000	-0.477467	324.785
279.8000	-0.499152	324.764
279.7000	-0.541319	324.757
279.6000	-0.570261	324.752
279.5000	-0.569133	324.75
279.4000	-0.612187	324.749
279.3000	-0.742307	324.742
279.2000	-0.790799	324.74
279.1000	-0.821623	324.74
279.0000	-0.748229	324.741
278.9000	-0.684593	324.731
278.8000	-0.617765	324.735
278.7000	-0.583655	324.739
278.6000	-0.547731	324.747
278.5000	-0.48591	324.762
278.4000	-0.495183	324.773
278.3000	-0.504494	324.783
278.2000	-0.548005	324.794
278.1000	-0.594448	324.806
278.0000	-0.619972	324.807
277.9000	-0.642876	324.801
277.8000	-0.639696	324.796
277.7000	-0.642047	324.791
277.6000	-0.582804	324.808
277.5000	-0.558232	324.824
277.4000	-0.558357	324.839
277.3000	-0.563236	324.857
277.2000	-0.564512	324.87
277.1000	-0.591985	324.885
277.0000	-0.632976	324.9
276.9000	-0.693842	324.914
276.8000	-0.685934	324.915
276.7000	-0.687944	324.906
276.6000	-0.663284	324.904
276.5000	-0.610381	324.903
276.4000	-0.535466	324.905
276.3000	-0.484552	324.91
276.2000	-0.430244	324.912
276.1000	-0.37736	324.916
276.0000	-0.416043	324.935
275.9000	-0.428704	324.96
275.8000	-0.441423	324.984
275.7000	-0.51362	325.002
275.6000	-0.594332	325.024
275.5000	-0.666426	325.042
275.4000	-0.73836	325.064
275.3000	-0.795962	325.088
275.2000	-0.741643	325.101
275.1000	-0.715707	325.105
275.0000	-0.721967	325.11
274.9000	-0.707332	325.117
274.8000	-0.687479	325.124
274.7000	-0.675201	325.129
274.6000	-0.674546	325.131
274.5000	-0.677997	325.131
274.4000	-0.659069	325.131
274.3000	-0.622562	325.132
274.2000	-0.604657	325.134
274.1000	-0.582316	325.138
274.0000	-0.502423	325.146
273.9000	-0.454243	325.153
273.8000	-0.405149	325.165
273.7000	-0.326192	325.18
273.6000	-0.320723	325.193
273.5000	-0.350565	325.21
273.4000	-0.420485	325.228
273.3000	-0.482476	325.247
273.2000	-0.562405	325.265
273.1000	-0.596956	325.286
273.0000	-0.627761	325.305
272.9000	-0.675829	325.328
272.8000	-0.710005	325.35
272.7000	-0.770527	325.372
272.6000	-0.810791	325.388
272.5000	-0.786099	325.408
272.4000	-0.765926	325.423
272.3000	-0.76456	325.44
272.2000	-0.775588	325.458
272.1000	-0.719464	325.476
272.0000	-0.700316	325.486
271.9000	-0.700451	325.502
271.8000	-0.672273	325.515
271.7000	-0.635365	325.529
271.6000	-0.615898	325.542
271.5000	-0.633078	325.557
271.4000	-0.672377	325.565
271.3000	-0.710972	325.572
271.2000	-0.721097	325.577
271.1000	-0.704126	325.584
271.0000	-0.768216	325.588
270.9000	-0.831255	325.576
270.8000	-0.850745	325.566
270.7000	-0.89113	325.555
270.6000	-0.880517	325.542
270.5000	-0.911807	325.525
270.4000	-0.947552	325.516
270.3000	-0.966481	325.502
270.2000	-0.920065	325.494
270.1000	-0.825913	325.498
270.0000	-0.756176	325.512
269.9000	-0.720868	325.521
269.8000	-0.669079	325.533
269.7000	-0.63189	325.547
269.6000	-0.573693	325.562
269.5000	-0.557116	325.578
269.4000	-0.539025	325.583
269.3000	-0.537231	325.589
269.2000	-0.57759	325.598
269.1000	-0.603805	325.612
269.0000	-0.589676	325.628
268.9000	-0.580778	325.655
268.8000	-0.621231	325.68
268.7000	-0.597979	325.709
268.6000	-0.612354	325.747
268.5000	-0.665866	325.793
268.4000	-0.653981	325.844
268.3000	-0.665341	325.877
268.2000	-0.637245	325.918
268.1000	-0.59855	325.955
268.0000	-0.584358	325.997
267.9000	-0.563942	326.039
267.8000	-0.552269	326.085
267.7000	-0.504023	326.13
267.6000	-0.510243	326.175
267.5000	-0.532648	326.23
267.4000	-0.592498	326.274
267.3000	-0.624662	326.317
267.2000	-0.621759	326.353
267.1000	-0.665754	326.393
267.0000	-0.69426	326.434
266.9000	-0.662231	326.477
266.8000	-0.700065	326.516
266.7000	-0.696246	326.539
266.6000	-0.675173	326.577
266.5000	-0.720237	326.618
266.4000	-0.796457	326.664
266.3000	-0.787587	326.716
266.2000	-0.793469	326.763
266.1000	-0.902527	326.809
266.0000	-0.912992	326.844
265.9000	-0.840569	326.899
265.8000	-0.772351	326.958
265.7000	-0.714769	327.013
265.6000	-0.639199	327.074
265.5000	-0.596443	327.128
265.4000	-0.515392	327.174
265.3000	-0.390448	327.225
265.2000	-0.355237	327.287
265.1000	-0.409992	327.348
265.0000	-0.475342	327.405
264.9000	-0.537536	327.471
264.8000	-0.619161	327.516
264.7000	-0.724784	327.563
264.6000	-0.823611	327.619
264.5000	-0.901901	327.679
264.4000	-0.927407	327.741
264.3000	-0.92206	327.787
264.2000	-0.871487	327.838
264.1000	-0.850809	327.893
264.0000	-0.821624	327.957
263.9000	-0.801704	328.029
263.8000	-0.70605	328.097
263.7000	-0.651016	328.166
263.6000	-0.636335	328.235
263.5000	-0.566104	328.315
263.4000	-0.510602	328.409
263.3000	-0.479467	328.474
263.2000	-0.42597	328.542
263.1000	-0.322707	328.62
263.0000	-0.233838	328.697
262.9000	-0.174141	328.76
262.8000	-0.127123	328.824
262.7000	-0.0808419	328.883
262.6000	-0.169625	328.934
262.5000	-0.188476	328.999
262.4000	-0.202868	329.061
262.3000	-0.273511	329.118
262.2000	-0.308531	329.174
262.1000	-0.424495	329.243
262.0000	-0.536969	329.301
261.9000	-0.62397	329.365
261.8000	-0.657483	329.439
261.7000	-0.667645	329.505
261.6000	-0.672217	329.576
261.5000	-0.626539	329.654
261.4000	-0.593947	329.733
261.3000	-0.604243	329.803
261.2000	-0.546105	329.883
261.1000	-0.499643	329.965
261.0000	-0.467852	330.049
260.9000	-0.449648	330.128
260.8000	-0.512813	330.206
260.7000	-0.590814	330.282
260.6000	-0.661292	330.345
260.5000	-0.692912	330.414
260.4000	-0.744223	330.485
260.3000	-0.790275	330.556
260.2000	-0.808828	330.614
260.1000	-0.87321	330.678
260.0000	-0.898274	330.756
259.9000	-0.84653	330.829
259.8000	-0.780267	330.917
259.7000	-0.736681	331.009
259.6000	-0.680047	331.09
259.5000	-0.685033	331.168
259.4000	-0.701826	331.256
259.3000	-0.675857	331.343
259.2000	-0.596589	331.43
259.1000	-0.55314	331.516
259.0000	-0.554787	331.584
258.9000	-0.528688	331.654
258.8000	-0.538136	331.731
258.7000	-0.524538	331.801
258.6000	-0.595061	331.872
258.5000	-0.640446	331.954
258.4000	-0.673053	332.034
258.3000	-0.674997	332.119
258.2000	-0.696846	332.217
258.1000	-0.746803	332.306
258.0000	-0.768641	332.394
257.9000	-0.754153	332.499
257.8000	-0.711211	332.601
257.7000	-0.628275	332.701
257.6000	-0.568497	332.801
257.5000	-0.584361	332.883
257.4000	-0.647291	332.961
257.3000	-0.654574	333.039
257.2000	-0.642117	333.129
257.1000	-0.670232	333.218
257.0000	-0.674507	333.306
256.9000	-0.708252	333.397
256.8000	-0.691913	333.473
256.7000	-0.649818	333.559
256.6000	-0.579592	333.647
256.5000	-0.523026	333.732
256.4000	-0.589332	333.814
256.3000	-0.597202	333.885
256.2000	-0.606333	333.959
256.1000	-0.607411	334.035
256.0000	-0.652135	334.101
255.9000	-0.708767	334.171
255.8000	-0.824767	334.234
255.7000	-0.879761	334.321
255.6000	-0.877792	334.421
255.5000	-0.8785	334.517
255.4000	-0.842906	334.616
255.3000	-0.81324	334.698
255.2000	-0.72824	334.793
255.1000	-0.672168	334.883
255.0000	-0.554705	334.978
254.9000	-0.494253	335.056
254.8000	-0.418165	335.127
254.7000	-0.318355	335.214
254.6000	-0.254075	335.291
254.5000	-0.207064	335.372
254.4000	-0.190703	335.446
254.3000	-0.184646	335.532
254.2000	-0.316547	335.614
254.1000	-0.34702	335.712
254.0000	-0.386367	335.809
253.9000	-0.458849	335.898
253.8000	-0.510545	335.97
253.7000	-0.519694	336.046
253.6000	-0.530353	336.124
253.5000	-0.557362	336.202
253.4000	-0.529131	336.274
253.3000	-0.494032	336.344
253.2000	-0.387099	336.411
253.1000	-0.335337	336.474
253.0000	-0.341499	336.545
252.9000	-0.36812	336.631
252.8000	-0.380403	336.718
252.7000	-0.427465	336.808
252.6000	-0.436213	336.897
252.5000	-0.456902	336.992
252.4000	-0.504306	337.083
252.3000	-0.519596	337.176
252.2000	-0.502022	337.258
252.1000	-0.501877	337.337
252.0000	-0.574262	337.41
251.9000	-0.65171	337.477
251.8000	-0.650853	337.55
251.7000	-0.693948	337.617
251.6000	-0.68122	337.699
251.5000	-0.662027	337.774
251.4000	-0.682491	337.863
251.3000	-0.783501	337.95
251.2000	-0.81493	338.037
251.1000	-0.822433	338.139
251.0000	-0.788943	338.241
250.9000	-0.795578	338.355
250.8000	-0.841267	338.459
250.7000	-0.889043	338.563
250.6000	-0.930955	338.663
250.5000	-0.897787	338.763
250.4000	-0.904727	338.874
250.3000	-0.905492	338.983
250.2000	-0.941206	339.099
250.1000	-0.883776	339.199
250.0000	-0.759577	339.292
249.9000	-0.749036	339.392
249.8000	-0.69171	339.493
249.7000	-0.656999	339.603
249.6000	-0.616412	339.704
249.5000	-0.53364	339.797
249.4000	-0.424379	339.888
249.3000	-0.390747	339.976
249.2000	-0.421724	340.067
249.1000	-0.414509	340.168
249.0000	-0.434507	340.266
248.9000	-0.454738	340.363
248.8000	-0.370315	340.471
248.7000	-0.390786	340.571
248.6000	-0.402201	340.669
248.5000	-0.381664	340.777
248.4000	-0.44298	340.887
248.3000	-0.487845	340.991
248.2000	-0.498285	341.101
248.1000	-0.559004	341.202
248.0000	-0.66707	341.29
247.9000	-0.668536	341.401
247.8000	-0.652222	341.511
247.7000	-0.707695	341.613
247.6000	-0.637201	341.729
247.5000	-0.567902	341.842
247.4000	-0.547551	341.937
247.3000	-0.540351	342.028
247.2000	-0.512804	342.137
247.1000	-0.464076	342.236
247.0000	-0.435297	342.328
246.9000	-0.425102	342.431
246.8000	-0.420437	342.517
246.7000	-0.46697	342.592
246.6000	-0.441447	342.676
246.5000	-0.424601	342.782
246.4000	-0.431049	342.879
246.3000	-0.445009	342.969
246.2000	-0.449616	343.067
246.1000	-0.39935	343.177
246.0000	-0.328611	343.286
245.9000	-0.277598	343.405
245.8000	-0.271348	343.532
245.7000	-0.258563	343.659
245.6000	-0.220718	343.786
245.5000	-0.164157	343.915
245.4000	-0.187765	344.049
245.3000	-0.259664	344.174
245.2000	-0.354196	344.308
245.1000	-0.383951	344.447
245.0000	-0.387634	344.579
244.9000	-0.410655	344.705
244.8000	-0.44693	344.832
244.7000	-0.463486	344.976
244.6000	-0.462022	345.122
244.5000	-0.388722	345.273
244.4000	-0.262675	345.421
244.3000	-0.203795	345.56
244.2000	-0.149345	345.7
244.1000	-0.128572	345.851
244.0000	-0.148672	346
243.9000	-0.170426	346.141
243.8000	-0.181094	346.276
243.7000	-0.193352	346.405
243.6000	-0.298334	346.533
243.5000	-0.365084	346.668
243.4000	-0.418144	346.823
243.3000	-0.488295	346.976
243.2000	-0.458491	347.127
243.1000	-0.398259	347.275
243.0000	-0.350266	347.425
242.9000	-0.369947	347.581
242.8000	-0.33035	347.746
242.7000	-0.323187	347.912
242.6000	-0.319159	348.066
242.5000	-0.337972	348.213
242.4000	-0.286601	348.371
242.3000	-0.254909	348.535
242.2000	-0.293746	348.706
242.1000	-0.34257	348.88
242.0000	-0.376974	349.053
241.9000	-0.468736	349.22
241.8000	-0.548509	349.388
241.7000	-0.559633	349.563
241.6000	-0.637279	349.731
241.5000	-0.717215	349.9
241.4000	-0.693457	350.077
241.3000	-0.650089	350.257
241.2000	-0.663054	350.433
241.1000	-0.716	350.611
241.0000	-0.682986	350.798
240.9000	-0.660167	350.988
240.8000	-0.655827	351.181
240.7000	-0.655648	351.38
240.6000	-0.698425	351.578
240.5000	-0.755686	351.766
240.4000	-0.767028	351.953
240.3000	-0.688089	352.154
240.2000	-0.623373	352.355
240.1000	-0.644199	352.553
240.0000	-0.622481	352.756
239.9000	-0.656153	352.961
239.8000	-0.677509	353.175
239.7000	-0.675724	353.395
239.6000	-0.591232	353.628
239.5000	-0.540407	353.865
239.4000	-0.55601	354.105
239.3000	-0.569714	354.343
239.2000	-0.532254	354.589
239.1000	-0.441449	354.84
239.0000	-0.384733	355.088
238.9000	-0.381747	355.33
238.8000	-0.34459	355.569
238.7000	-0.330513	355.804
238.6000	-0.310001	356.026
238.5000	-0.262618	356.252
238.4000	-0.282798	356.483
238.3000	-0.324885	356.708
238.2000	-0.327471	356.934
238.1000	-0.34551	357.16
238.0000	-0.443772	357.389
237.9000	-0.582694	357.628
237.8000	-0.643712	357.873
237.7000	-0.7173	358.127
237.6000	-0.702813	358.384
237.5000	-0.65925	358.647
237.4000	-0.591281	358.91
237.3000	-0.498276	359.176
237.2000	-0.382699	359.444
237.1000	-0.304312	359.704
237.0000	-0.246129	359.969
236.9000	-0.238881	360.231
236.8000	-0.276695	360.497
236.7000	-0.32432	360.768
236.6000	-0.456035	361.026
236.5000	-0.576611	361.289
236.4000	-0.600734	361.56
236.3000	-0.51812	361.839
236.2000	-0.460644	362.119
236.1000	-0.439164	362.391
236.0000	-0.346568	362.666
235.9000	-0.261762	362.935
235.8000	-0.204865	363.212
235.7000	-0.100672	363.495
235.6000	-0.0701058	363.777
235.5000	-0.176544	364.059
235.4000	-0.298753	364.343
235.3000	-0.374174	364.626
235.2000	-0.447095	364.909
235.1000	-0.486798	365.196
235.0000	-0.46055	365.482
234.9000	-0.467389	365.761
234.8000	-0.492948	366.041
234.7000	-0.44329	366.324
234.6000	-0.293626	366.601
234.5000	-0.164436	366.888
234.4000	-0.0927926	367.182
234.3000	-0.0693531	367.468
234.2000	-0.0790495	367.752
234.1000	-0.12	368.047
234.0000	-0.149814	368.336
233.9000	-0.181431	368.627
233.8000	-0.348897	368.918
233.7000	-0.481452	369.209
233.6000	-0.5685	369.501
233.5000	-0.577822	369.804
233.4000	-0.535623	370.102
233.3000	-0.493739	370.403
233.2000	-0.38442	370.714
233.1000	-0.434667	371.013
233.0000	-0.473139	371.312
232.9000	-0.51914	371.609
232.8000	-0.531153	371.911
232.7000	-0.508275	372.213
232.6000	-0.551153	372.52
232.5000	-0.617678	372.829
232.4000	-0.756054	373.122
232.3000	-0.754762	373.427
232.2000	-0.738796	373.726
232.1000	-0.549021	374.031
232.0000	-0.42141	374.328
231.9000	-0.478701	374.615
231.8000	-0.475651	374.9
231.7000	-0.479519	375.188
231.6000	-0.451289	375.488
231.5000	-0.377963	375.782
231.4000	-0.381785	376.076
231.3000	-0.329299	376.375
231.2000	-0.268092	376.681
231.1000	-0.187523	376.979
231.0000	-0.103094	377.277
230.9000	-0.0729572	377.577
230.8000	-0.0107675	377.869
230.7000	-0.0234892	378.165
230.6000	0.0166597	378.46
230.5000	-0.0960682	378.756
230.4000	-0.185822	379.051
230.3000	-0.288343	379.353
230.2000	-0.496995	379.651
230.1000	-0.638686	379.956
230.0000	-0.704855	380.258
229.9000	-0.720954	380.555
229.8000	-0.753358	380.856
229.7000	-0.718852	381.151
229.6000	-0.709769	381.438
229.5000	-0.684468	381.719
229.4000	-0.666919	381.993
229.3000	-0.571914	382.266
229.2000	-0.561792	382.529
229.1000	-0.480966	382.791
229.0000	-0.519932	383.052
228.9000	-0.456716	383.314
228.8000	-0.486742	383.579
228.7000	-0.545235	383.854
228.6000	-0.497134	384.137
228.5000	-0.430115	384.424
228.4000	-0.442436	384.725
228.3000	-0.4719	385.034
228.2000	-0.389719	385.346
228.1000	-0.32741	385.669
228.0000	-0.320789	385.996
227.9000	-0.238683	386.32
227.8000	-0.293835	386.635
227.7000	-0.298606	386.959
227.6000	-0.326961	387.272
227.5000	-0.401647	387.573
227.4000	-0.549995	387.871
227.3000	-0.767767	388.164
227.2000	-0.852064	388.452
227.1000	-0.925102	388.735
227.0000	-0.895189	389.02
226.9000	-0.831913	389.297
226.8000	-0.852677	389.573
226.7000	-0.72669	389.855
226.6000	-0.605829	390.135
226.5000	-0.562198	390.407
226.4000	-0.435805	390.678
226.3000	-0.385086	390.945
226.2000	-0.328157	391.219
226.1000	-0.329729	391.49
226.0000	-0.324795	391.756
225.9000	-0.315129	392.015
225.8000	-0.37326	392.271
225.7000	-0.315951	392.529
225.6000	-0.280541	392.784
225.5000	-0.36579	393.037
225.4000	-0.401241	393.285
225.3000	-0.467725	393.538
225.2000	-0.587644	393.79
225.1000	-0.634959	394.044
225.0000	-0.569425	394.301
224.9000	-0.529627	394.556
224.8000	-0.592932	394.807
224.7000	-0.516249	395.059
224.6000	-0.458201	395.31
224.5000	-0.61353	395.549
224.4000	-0.650513	395.788
224.3000	-0.682219	396.026
224.2000	-0.692676	396.26
224.1000	-0.759222	396.49
224.0000	-0.851889	396.721
223.9000	-0.858275	396.956
223.8000	-0.877576	397.193
223.7000	-0.664976	397.436
223.6000	-0.484154	397.678
223.5000	-0.322572	397.923
223.4000	-0.204356	398.161
223.3000	-0.143187	398.391
223.2000	-0.0557585	398.619
223.1000	0.0643973	398.846
223.0000	0.138851	399.068
222.9000	0.107749	399.284
222.8000	0.0731243	399.497
222.7000	-0.00286545	399.705
222.6000	-0.0335905	399.913
222.5000	-0.107604	400.127
222.4000	-0.179438	400.336
222.3000	-0.303311	400.543
222.2000	-0.496334	400.747
222.1000	-0.543214	400.955
222.0000	-0.627105	401.159
221.9000	-0.660694	401.358
221.8000	-0.655202	401.557
221.7000	-0.70204	401.754
221.6000	-0.744912	401.953
221.5000	-0.844592	402.152
221.4000	-0.769056	402.346
221.3000	-0.714312	402.54
221.2000	-0.770639	402.73
221.1000	-0.592745	402.928
221.0000	-0.697913	403.114
220.9000	-0.865796	403.294
220.8000	-0.885331	403.477
220.7000	-0.784817	403.656
220.6000	-0.747124	403.838
220.5000	-0.706951	404.023
220.4000	-0.575924	404.197
220.3000	-0.662731	404.367
220.2000	-0.695927	404.543
220.1000	-0.601177	404.717
220.0000	-0.514212	404.891
219.9000	-0.462401	405.066
219.8000	-0.365742	405.239
219.7000	-0.364861	405.402
219.6000	-0.408435	405.564
219.5000	-0.442717	405.727
219.4000	-0.375082	405.892
219.3000	-0.155278	406.059
219.2000	-0.0478046	406.223
219.1000	-0.10364	406.38
219.0000	-0.146285	406.54
218.9000	-0.162453	406.701
218.8000	-0.108322	406.866
218.7000	-0.0645659	407.026
218.6000	-0.00403224	407.186
218.5000	-0.0893746	407.338
218.4000	-0.0592314	407.499
218.3000	0.055946	407.654
218.2000	0.0975231	407.807
218.1000	0.123878	407.954
218.0000	0.124104	408.102
217.9000	0.0647147	408.248
217.8000	-0.0163796	408.384
217.7000	-0.124484	408.525
217.6000	-0.399648	408.651
217.5000	-0.647173	408.784
217.4000	-0.763141	408.917
217.3000	-0.859568	409.05
217.2000	-0.953338	409.185
217.1000	-0.985973	409.318
217.0000	-0.940485	409.456
216.9000	-0.811759	409.599
216.8000	-0.512665	409.745
216.7000	-0.326891	409.885
216.6000	-0.416049	410.018
216.5000	-0.365184	410.155
216.4000	-0.389695	410.286
216.3000	-0.423461	410.414
216.2000	-0.512383	410.547
216.1000	-0.544048	410.68
216.0000	-0.419487	410.814
215.9000	-0.306509	410.946
215.8000	-0.0851439	411.08
215.7000	-0.0853565	411.211
215.6000	0.000455881	411.346
215.5000	0.138197	411.484
215.4000	0.250075	411.616
215.3000	0.194004	411.739
215.2000	0.110858	411.861
215.1000	-0.190987	411.984
215.0000	-0.40862	412.112
214.9000	-0.501628	412.239
214.8000	-0.570359	412.363
214.7000	-0.517698	412.491
214.6000	-0.539349	412.616
214.5000	-0.407377	412.745
214.4000	-0.365062	412.873
214.3000	-0.307731	412.999
214.2000	0.0141074	413.13
214.1000	0.186418	413.258
214.0000	0.185276	413.383
213.9000	0.124803	413.506
213.8000	0.0258841	413.63
213.7000	-0.103896	413.756
213.6000	-0.199801	413.883
213.5000	-0.232197	414.013
213.4000	-0.344266	414.14
213.3000	-0.558407	414.266
213.2000	-0.587234	414.399
213.1000	-0.562333	414.537
213.0000	-0.549932	414.671
212.9000	-0.510464	414.809
212.8000	-0.522865	414.939
212.7000	-0.547878	415.071
212.6000	-0.54682	415.205
212.5000	-0.547114	415.341
212.4000	-0.48772	415.481
212.3000	-0.428058	415.617
212.2000	-0.439769	415.753
212.1000	-0.359897	415.894
212.0000	-0.363468	416.038
211.9000	-0.310353	416.189
211.8000	-0.269408	416.337
211.7000	-0.263088	416.485
211.6000	-0.345484	416.631
211.5000	-0.369938	416.777
211.4000	-0.489345	416.923
211.3000	-0.538963	417.075
211.2000	-0.555861	417.223
211.1000	-0.68469	417.37
211.0000	-0.747169	417.523
210.9000	-0.798072	417.675
210.8000	-0.778728	417.827
210.7000	-0.586668	417.992
210.6000	-0.360801	418.155
210.5000	-0.231096	418.317
210.4000	-0.143521	418.473
210.3000	-0.00657842	418.635
210.2000	0.0436708	418.786
210.1000	0.148856	418.943
210.0000	0.359056	419.104
209.9000	0.294077	419.256
209.8000	0.222265	419.411
209.7000	0.259672	419.574
209.6000	-0.00450729	419.729
209.5000	-0.118944	419.894
209.4000	-0.20228	420.059
209.3000	-0.282962	420.227
209.2000	-0.388692	420.399
209.1000	-0.513196	420.571
209.0000	-0.613576	420.741
208.9000	-0.675198	420.915
208.8000	-0.529123	421.093
208.7000	-0.269184	421.274
208.6000	-0.153015	421.46
208.5000	-0.0976541	421.646
208.4000	-0.153143	421.827
208.3000	-0.217972	422.008
208.2000	-0.170458	422.195
208.1000	-0.237003	422.377
208.0000	-0.47272	422.553
207.9000	-0.633122	422.733
207.8000	-0.716424	422.914
207.7000	-0.733533	423.1
207.6000	-0.673883	423.289
207.5000	-0.549072	423.477
207.4000	-0.516268	423.66
207.3000	-0.449665	423.846
207.2000	-0.260053	424.037
207.1000	-0.0416157	424.229
207.0000	0.0512575	424.416
206.9000	0.0549562	424.599
206.8000	-0.0991464	424.775
206.7000	-0.186103	424.956
206.6000	-0.129485	425.145
206.5000	-0.212265	425.331
206.4000	-0.320771	425.516
206.3000	-0.453074	425.701
206.2000	-0.645573	425.88
206.1000	-0.776155	426.058
206.0000	-0.655141	426.246
205.9000	-0.569605	426.435
205.8000	-0.31229	426.626
205.7000	-0.163449	426.816
205.6000	0.0243237	427.008
205.5000	0.296572	427.205
205.4000	0.352548	427.398
205.3000	0.428765	427.593
205.2000	0.42332	427.788
205.1000	0.418142	427.986
205.0000	0.376884	428.182
204.9000	0.314479	428.381
204.8000	0.130348	428.576
204.7000	-0.0692605	428.776
204.6000	-0.020172	428.982
204.5000	0.117153	429.194
204.4000	0.11372	429.399
204.3000	0.0983278	429.606
204.2000	-0.197981	429.806
204.1000	-0.240223	430.012
204.0000	-0.100492	430.225
203.9000	-0.0655811	430.432
203.8000	-0.242403	430.637
203.7000	-0.565305	430.839
203.6000	-0.595541	431.057
203.5000	-0.429213	431.278
203.4000	-0.233691	431.501
203.3000	-0.351581	431.719
203.2000	-0.531703	431.937
203.1000	-0.660579	432.16
203.0000	-0.630596	432.386
202.9000	-0.624339	432.614
202.8000	-0.609676	432.841
202.7000	-0.704892	433.07
202.6000	-0.797615	433.298
202.5000	-0.902268	433.522
202.4000	-0.843488	433.75
202.3000	-0.621775	433.988
202.2000	-0.53288	434.221
202.1000	-0.285884	434.458
202.0000	-0.2404	434.689
201.9000	-0.217783	434.924
201.8000	-0.182144	435.162
201.7000	-0.159639	435.407
201.6000	-0.174627	435.656
201.5000	-0.326322	435.899
201.4000	-0.512676	436.145
201.3000	-0.765034	436.392
201.2000	-0.875126	436.651
201.1000	-0.90163	436.909
201.0000	-0.940187	437.168
200.9000	-0.787782	437.434
200.8000	-0.62036	437.702
200.7000	-0.716344	437.967
200.6000	-0.702134	438.238
200.5000	-0.618835	438.514
200.4000	-0.534798	438.794
200.3000	-0.389749	439.079
200.2000	-0.319979	439.368
200.1000	-0.431547	439.65
200.0000	-0.612648	439.93
199.9000	-0.639659	440.215
199.8000	-0.591614	440.505
199.7000	-0.540315	440.786
199.6000	-0.464827	441.067
199.5000	-0.442631	441.348
199.4000	-0.645419	441.621
199.3000	-0.684368	441.894
199.2000	-0.601252	442.178
199.1000	-0.579085	442.462
199.0000	-0.526604	442.751
198.9000	-0.505911	443.054
198.8000	-0.530899	443.363
198.7000	-0.638349	443.675
198.6000	-0.681138	443.995
198.5000	-0.573174	444.334
198.4000	-0.496052	444.675
198.3000	-0.176318	445.026
198.2000	0.0790448	445.386
198.1000	0.282574	445.75
198.0000	0.595759	446.134
197.9000	0.74439	446.529
197.8000	0.765096	446.932
197.7000	0.716805	447.345
197.6000	0.601947	447.761
197.5000	0.33301	448.179
197.4000	0.215117	448.592
197.3000	-0.0529987	448.989
197.2000	-0.200615	449.359
197.1000	-0.184202	449.698
197.0000	-0.0851775	450.009
196.9000	0.133962	450.301
196.8000	0.428396	450.576
196.7000	0.518749	450.837
196.6000	0.487169	451.102
196.5000	0.598158	451.379
196.4000	0.799311	451.682
196.3000	0.772116	452.021
196.2000	0.781274	452.4
196.1000	0.664029	452.809
196.0000	0.398282	453.258
195.9000	0.253401	453.762
195.8000	0.283551	454.328
195.7000	0.35617	454.966
195.6000	0.243641	455.681
195.5000	-0.0500222	456.475
195.4000	-0.0708149	457.352
195.3000	-0.0580066	458.286
195.2000	0.0910636	459.261
195.1000	0.0271954	460.238
195.0000	0.0365968	461.177
194.9000	-0.226198	462.019
194.8000	-0.491768	462.714
194.7000	-0.532598	463.253
194.6000	-0.58238	463.64
194.5000	-0.59163	463.889
194.4000	-0.811498	464.029
194.3000	-0.759291	464.093
194.2000	-0.748891	464.121
194.1000	-0.688926	464.177
194.0000	-0.635754	464.323
193.9000	-0.632256	464.601
193.8000	-0.724101	465.025
193.7000	-0.755332	465.628
193.6000	-0.756595	466.447
193.5000	-0.764043	467.48
193.4000	-0.778601	468.77
193.3000	-0.69283	470.333
193.2000	-0.735472	472.134
193.1000	-0.838913	474.145
193.0000	-0.670448	476.329
192.9000	-0.522554	478.592
192.8000	-0.334195	480.82
192.7000	-0.405396	482.895
192.6000	-0.733939	484.645
192.5000	-0.845681	485.961
192.4000	-0.48884	486.804
192.3000	-0.401975	487.181
192.2000	-0.205621	487.154
192.1000	-0.182121	486.786
192.0000	-0.232255	486.184
191.9000	-0.219656	485.491
191.8000	0.109997	484.893
191.7000	0.154719	484.571
191.6000	0.0326133	484.653
191.5000	0.109664	485.163
191.4000	0.126807	486.111
191.3000	0.0777345	487.543
191.2000	-0.0707833	489.507
191.1000	-0.199845	491.973
191.0000	-0.375367	494.887
190.9000	-0.34084	498.15
190.8000	0.206084	501.629
190.7000	0.598374	505.196
190.6000	0.912478	508.723
190.5000	1.1645	511.995
190.4000	1.61922	514.767
190.3000	2.25119	516.856
190.2000	2.37802	518.203
190.1000	2.50207	518.861
190.0000	2.31327	518.927

##### Extended Information
[Comments]
Sample name	D2_1.0uM
Comment
User
Division
Company	CSIR-IMTECH

[Detailed Information]
Creation date	3/11/2024 2:19 PM

Data array type	Linear data array * 2
Horizontal axis	Wavelength [nm]
Vertical axis(1)	CD [mdeg]
Vertical axis(2)	HT [V]
Start	350 nm
End	190 nm
Data interval	0.1 nm
Data points	1601    

[Measurement Information]
Instrument Name	JASCO CD
Model Name	J-815
Serial No.	B063061168

Accessory	PTC-423S
Accessory S/N	C013945-01
  Temperature	37.96 C
  Control Sonsor	Cell
  Monitor Sensor	Cell
  Start Mode	Start immediately
  Cell Length	10 mm

Measurement date	3/11/2024 2:19 PM

Photometric Mode	CD, HT
Measure Range	350 - 190 nm
Data pitch	0.1 nm
Sensitivity	Standard
D.I.T.	1 sec
Bandwidth	1.00 nm
Start Mode	Immediately
Scanning Speed	50 nm/min
Baseline Correction	None
Shutter Control	Manual
CD Detector	PMT
PMT Voltage	Auto
Accumulations	3
Concentration	1 umol/L

