TITLE	ACE2_D2_0.6uM
DATA TYPE	
ORIGIN	JASCO
OWNER	
DATE	24/02/26
TIME	16:52:33
SPECTROMETER/DATA SYSTEM	
LOCALE	1033
RESOLUTION	
DELTAX	-0.1
XUNITS	NANOMETERS
YUNITS	CD [mdeg]
Y2UNITS	HT [V]
FIRSTX	  350.0000
LASTX	  190.0000
NPOINTS	    1601
FIRSTY	     2.00000
MAXY	     2.33258
MINY	   -15.75833
XYDATA
350.0000	2	468.99
349.9000	2.20929	468.404
349.8000	2.14806	467.532
349.7000	2.33258	466.659
349.6000	2.33144	466.022
349.5000	2.27947	465.458
349.4000	2.01107	464.579
349.3000	1.90368	463.955
349.2000	1.91932	463.427
349.1000	2.03411	462.625
349.0000	2.1826	462.037
348.9000	2.05758	461.502
348.8000	1.95924	460.656
348.7000	1.66643	459.791
348.6000	1.78352	459.178
348.5000	2.14547	458.658
348.4000	2.21864	457.815
348.3000	2.05507	457.173
348.2000	1.63017	456.589
348.1000	1.64767	455.739
348.0000	1.38196	455.109
347.9000	1.42963	454.574
347.8000	1.64838	453.774
347.7000	1.38133	452.953
347.6000	1.10505	452.364
347.5000	0.869618	451.867
347.4000	0.790528	451.076
347.3000	0.597606	450.48
347.2000	0.603071	449.971
347.1000	0.631298	449.21
347.0000	0.565112	448.642
346.9000	0.539075	448.145
346.8000	0.570478	447.381
346.7000	0.70534	446.605
346.6000	0.960517	446.037
346.5000	1.05687	445.313
346.4000	1.20388	444.579
346.3000	1.32155	444.021
346.2000	1.43806	443.284
346.1000	1.537	442.536
346.0000	1.77907	442
345.9000	1.88859	441.537
345.8000	1.87279	440.804
345.7000	1.71136	440.252
345.6000	1.60429	439.777
345.5000	1.42117	439.087
345.4000	1.29651	438.591
345.3000	1.04652	438.164
345.2000	1.02739	437.481
345.1000	0.969354	436.782
345.0000	0.974264	436.273
344.9000	0.998731	435.607
344.8000	0.906521	434.919
344.7000	0.970513	434.383
344.6000	1.13218	433.715
344.5000	1.2204	433.039
344.4000	1.2319	432.544
344.3000	1.22799	431.89
344.2000	1.24339	431.225
344.1000	1.21192	430.736
344.0000	1.43444	430.114
343.9000	1.66992	429.484
343.8000	1.75897	429.006
343.7000	1.75935	428.579
343.6000	1.6968	427.941
343.5000	1.6934	427.482
343.4000	1.52246	427.09
343.3000	1.37957	426.457
343.2000	1.1849	425.988
343.1000	0.893952	425.578
343.0000	0.753459	424.992
342.9000	0.743144	424.4
342.8000	0.794075	423.958
342.7000	0.884195	423.355
342.6000	0.977442	422.746
342.5000	1.04517	422.304
342.4000	1.13498	421.758
342.3000	1.34079	421.214
342.2000	1.37314	420.792
342.1000	1.24836	420.241
342.0000	1.22208	419.688
341.9000	1.1476	419.299
341.8000	0.962808	418.775
341.7000	0.96708	418.246
341.6000	0.903674	417.846
341.5000	0.824156	417.303
341.4000	0.78752	416.749
341.3000	0.853686	416.334
341.2000	0.936457	415.79
341.1000	1.06621	415.233
341.0000	1.23059	414.821
340.9000	1.18713	414.276
340.8000	1.22833	413.727
340.7000	1.27985	413.319
340.6000	1.33377	412.819
340.5000	1.29104	412.31
340.4000	1.29109	411.935
340.3000	1.16168	411.426
340.2000	0.920032	410.907
340.1000	0.786266	410.53
340.0000	0.773306	410.057
339.9000	0.798229	409.577
339.8000	0.745039	409.208
339.7000	0.755347	408.73
339.6000	0.659382	408.235
339.5000	0.539033	407.876
339.4000	0.585469	407.414
339.3000	0.698169	406.938
339.2000	0.670628	406.415
339.1000	0.596313	405.946
339.0000	0.521779	405.47
338.9000	0.450317	404.95
338.8000	0.483965	404.488
338.7000	0.506048	404.021
338.6000	0.477683	403.514
338.5000	0.480638	403.067
338.4000	0.399319	402.737
338.3000	0.411814	402.32
338.2000	0.408847	401.894
338.1000	0.35732	401.587
338.0000	0.245118	401.172
337.9000	0.195198	400.749
337.8000	0.181186	400.445
337.7000	0.0477004	400.038
337.6000	0.0147991	399.624
337.5000	-0.0723542	399.31
337.4000	-0.153627	398.895
337.3000	-0.0567642	398.473
337.2000	0.185991	398.018
337.1000	0.326255	397.615
337.0000	0.433882	397.205
336.9000	0.500866	396.774
336.8000	0.522864	396.396
336.7000	0.58471	396.014
336.6000	0.638024	395.588
336.5000	0.728324	395.21
336.4000	0.623509	394.935
336.3000	0.539732	394.566
336.2000	0.453082	394.187
336.1000	0.439334	393.904
336.0000	0.420153	393.533
335.9000	0.468232	393.149
335.8000	0.492416	392.729
335.7000	0.422828	392.355
335.6000	0.407794	391.978
335.5000	0.408425	391.579
335.4000	0.556199	391.235
335.3000	0.62799	390.888
335.2000	0.717879	390.512
335.1000	0.704332	390.175
335.0000	0.732742	389.947
334.9000	0.757151	389.626
334.8000	0.771353	389.292
334.7000	0.576281	388.915
334.6000	0.44376	388.58
334.5000	0.245244	388.233
334.4000	0.174866	387.85
334.3000	0.0839571	387.506
334.2000	-0.0533569	387.154
334.1000	-0.0393607	386.781
334.0000	-0.113336	386.45
333.9000	-0.12426	386.219
333.8000	-0.0658313	385.915
333.7000	-0.0159607	385.601
333.6000	0.0235288	385.245
333.5000	0.0641811	384.937
333.4000	0.179255	384.623
333.3000	0.19394	384.278
333.2000	0.21118	383.976
333.1000	0.278142	383.665
333.0000	0.390238	383.338
332.9000	0.241529	383.036
332.8000	0.147205	382.698
332.7000	0.106565	382.403
332.6000	0.129214	382.104
332.5000	0.0909643	381.781
332.4000	0.122037	381.502
332.3000	0.124097	381.222
332.2000	0.0429412	380.899
332.1000	0.0675279	380.607
332.0000	0.144137	380.289
331.9000	0.135255	380.015
331.8000	0.0810822	379.735
331.7000	0.0199655	379.429
331.6000	-0.0649296	379.149
331.5000	-0.128323	378.741
331.4000	-0.194567	378.413
331.3000	-0.215601	378.127
331.2000	-0.195799	377.829
331.1000	-0.0968683	377.572
331.0000	-0.0579372	377.308
330.9000	-0.0702116	377.018
330.8000	0.00216058	376.759
330.7000	0.0258777	376.479
330.6000	0.105532	376.239
330.5000	0.19532	375.997
330.4000	0.171815	375.715
330.3000	0.0230539	375.459
330.2000	-0.063841	375.106
330.1000	-0.139027	374.823
330.0000	-0.150289	374.575
329.9000	-0.155819	374.285
329.8000	-0.234728	374.024
329.7000	-0.371585	373.678
329.6000	-0.46864	373.411
329.5000	-0.368815	373.187
329.4000	-0.36723	372.904
329.3000	-0.360206	372.648
329.2000	-0.360073	372.307
329.1000	-0.411568	372.047
329.0000	-0.457053	371.829
328.9000	-0.456943	371.57
328.8000	-0.435934	371.334
328.7000	-0.426756	371.045
328.6000	-0.406048	370.845
328.5000	-0.293606	370.69
328.4000	-0.229166	370.442
328.3000	-0.213154	370.212
328.2000	-0.228023	369.965
328.1000	-0.262288	369.793
328.0000	-0.279452	369.654
327.9000	-0.286661	369.368
327.8000	-0.388143	369.082
327.7000	-0.551854	368.803
327.6000	-0.679437	368.64
327.5000	-0.676351	368.536
327.4000	-0.652884	368.248
327.3000	-0.64917	367.945
327.2000	-0.650775	367.634
327.1000	-0.747907	367.454
327.0000	-0.809511	367.342
326.9000	-0.757623	367.073
326.8000	-0.733019	366.776
326.7000	-0.73645	366.479
326.6000	-0.754748	366.325
326.5000	-0.723063	366.246
326.4000	-0.669093	365.983
326.3000	-0.544824	365.708
326.2000	-0.399577	365.454
326.1000	-0.282519	365.314
326.0000	-0.195636	365.028
325.9000	-0.19326	364.735
325.8000	-0.203835	364.435
325.7000	-0.225117	364.167
325.6000	-0.286801	364.034
325.5000	-0.304433	363.766
325.4000	-0.391806	363.473
325.3000	-0.500529	363.162
325.2000	-0.575705	363.046
325.1000	-0.678474	363.006
325.0000	-0.695634	362.776
324.9000	-0.695507	362.515
324.8000	-0.697684	362.262
324.7000	-0.684504	362.165
324.6000	-0.737772	362.141
324.5000	-0.829994	361.898
324.4000	-0.924249	361.612
324.3000	-0.9032	361.333
324.2000	-0.924644	361.186
324.1000	-0.852552	360.911
324.0000	-0.748057	360.616
323.9000	-0.713354	360.292
323.8000	-0.675657	359.993
323.7000	-0.639057	359.846
323.6000	-0.624419	359.603
323.5000	-0.59414	359.333
323.4000	-0.548908	359.083
323.3000	-0.562207	358.982
323.2000	-0.657901	358.945
323.1000	-0.80957	358.752
323.0000	-0.908133	358.533
322.9000	-0.958136	358.285
322.8000	-0.9897	358.155
322.7000	-1.03273	357.909
322.6000	-1.11794	357.624
322.5000	-1.19805	357.322
322.4000	-1.22751	357.02
322.3000	-1.17835	356.822
322.2000	-1.0875	356.488
322.1000	-1.06857	356.151
322.0000	-0.968069	355.839
321.9000	-0.939105	355.655
321.8000	-0.985469	355.415
321.7000	-0.99654	355.175
321.6000	-1.09656	354.93
321.5000	-1.23853	354.699
321.4000	-1.38156	354.617
321.3000	-1.52364	354.503
321.2000	-1.70577	354.377
321.1000	-1.82875	354.217
321.0000	-1.84432	354.158
320.9000	-1.86849	354.027
320.8000	-1.8561	353.888
320.7000	-1.7391	353.733
320.6000	-1.59321	353.57
320.5000	-1.45709	353.484
320.4000	-1.32982	353.288
320.3000	-1.18515	353.105
320.2000	-1.14949	352.914
320.1000	-1.10615	352.809
320.0000	-1.05556	352.633
319.9000	-1.04189	352.465
319.8000	-1.07003	352.271
319.7000	-1.14945	352.068
319.6000	-1.20521	351.87
319.5000	-1.32757	351.717
319.4000	-1.38978	351.569
319.3000	-1.4638	351.376
319.2000	-1.49398	351.26
319.1000	-1.55361	351.073
319.0000	-1.59603	350.901
318.9000	-1.61843	350.699
318.8000	-1.61149	350.565
318.7000	-1.60087	350.348
318.6000	-1.54118	350.125
318.5000	-1.61502	349.917
318.4000	-1.6882	349.715
318.3000	-1.71111	349.522
318.2000	-1.73173	349.367
318.1000	-1.7177	349.237
318.0000	-1.66096	349.068
317.9000	-1.67481	348.976
317.8000	-1.71536	348.862
317.7000	-1.6854	348.758
317.6000	-1.61386	348.591
317.5000	-1.62856	348.469
317.4000	-1.64728	348.296
317.3000	-1.62355	348.119
317.2000	-1.66008	347.921
317.1000	-1.66704	347.737
317.0000	-1.68666	347.504
316.9000	-1.69837	347.286
316.8000	-1.82847	347.079
316.7000	-1.92325	346.889
316.6000	-1.96924	346.718
316.5000	-1.98018	346.571
316.4000	-1.98393	346.397
316.3000	-2.00428	346.232
316.2000	-2.04095	346.091
316.1000	-2.08708	345.986
316.0000	-2.0574	345.906
315.9000	-2.01513	345.767
315.8000	-1.99699	345.652
315.7000	-1.99031	345.489
315.6000	-2.05193	345.372
315.5000	-2.15933	345.206
315.4000	-2.23089	345.074
315.3000	-2.25314	344.859
315.2000	-2.23536	344.637
315.1000	-2.21071	344.44
315.0000	-2.24071	344.263
314.9000	-2.28623	344.104
314.8000	-2.29309	343.961
314.7000	-2.28058	343.809
314.6000	-2.18123	343.682
314.5000	-2.0378	343.578
314.4000	-1.98591	343.505
314.3000	-2.05547	343.377
314.2000	-2.08906	343.256
314.1000	-2.04463	343.101
314.0000	-2.03374	342.949
313.9000	-1.94762	342.782
313.8000	-1.98888	342.624
313.7000	-2.0864	342.409
313.6000	-2.17042	342.202
313.5000	-2.15597	342.009
313.4000	-2.10372	341.836
313.3000	-2.07787	341.683
313.2000	-2.17649	341.54
313.1000	-2.29856	341.381
313.0000	-2.35168	341.241
312.9000	-2.36897	341.124
312.8000	-2.32995	341.035
312.7000	-2.31647	340.905
312.6000	-2.31959	340.782
312.5000	-2.30658	340.633
312.4000	-2.30491	340.481
312.3000	-2.33781	340.297
312.2000	-2.36896	340.126
312.1000	-2.41384	339.908
312.0000	-2.47536	339.698
311.9000	-2.55024	339.499
311.8000	-2.60655	339.305
311.7000	-2.61325	339.142
311.6000	-2.63463	338.934
311.5000	-2.58147	338.785
311.4000	-2.5733	338.642
311.3000	-2.58861	338.552
311.2000	-2.54214	338.433
311.1000	-2.50878	338.344
311.0000	-2.46313	338.252
310.9000	-2.41829	338.167
310.8000	-2.42029	338.063
310.7000	-2.38164	337.98
310.6000	-2.37506	337.861
310.5000	-2.37505	337.748
310.4000	-2.4243	337.64
310.3000	-2.3991	337.552
310.2000	-2.45229	337.471
310.1000	-2.56521	337.395
310.0000	-2.59944	337.308
309.9000	-2.70201	337.238
309.8000	-2.7852	337.18
309.7000	-2.80955	337.07
309.6000	-2.81003	336.987
309.5000	-2.79436	336.89
309.4000	-2.82004	336.799
309.3000	-2.78073	336.643
309.2000	-2.81836	336.523
309.1000	-2.82419	336.377
309.0000	-2.80609	336.244
308.9000	-2.77214	336.119
308.8000	-2.77245	336.01
308.7000	-2.87168	335.917
308.6000	-2.87616	335.835
308.5000	-2.87121	335.734
308.4000	-2.89627	335.646
308.3000	-2.90229	335.59
308.2000	-2.90957	335.472
308.1000	-2.92139	335.386
308.0000	-2.94464	335.309
307.9000	-2.92946	335.235
307.8000	-2.98937	335.073
307.7000	-3.03801	334.955
307.6000	-3.05791	334.839
307.5000	-2.99944	334.669
307.4000	-2.96121	334.551
307.3000	-2.95244	334.452
307.2000	-2.93564	334.363
307.1000	-2.88549	334.21
307.0000	-2.89774	334.112
306.9000	-2.90302	334.039
306.8000	-2.87421	333.987
306.7000	-2.95553	333.913
306.6000	-3.06807	333.834
306.5000	-3.08632	333.762
306.4000	-3.13581	333.627
306.3000	-3.20643	333.535
306.2000	-3.22342	333.436
306.1000	-3.21601	333.342
306.0000	-3.27598	333.199
305.9000	-3.202	333.107
305.8000	-3.0951	333.041
305.7000	-3.07699	332.917
305.6000	-3.03543	332.835
305.5000	-3.00942	332.77
305.4000	-3.02303	332.728
305.3000	-3.03018	332.627
305.2000	-2.98058	332.559
305.1000	-2.98069	332.491
305.0000	-3.003	332.367
304.9000	-2.97181	332.291
304.8000	-2.96553	332.211
304.7000	-3.00374	332.135
304.6000	-2.97254	332.011
304.5000	-2.97266	331.921
304.4000	-2.99427	331.853
304.3000	-3.11784	331.732
304.2000	-3.23022	331.66
304.1000	-3.30777	331.609
304.0000	-3.4493	331.571
303.9000	-3.50353	331.477
303.8000	-3.47838	331.404
303.7000	-3.44541	331.36
303.6000	-3.44376	331.259
303.5000	-3.4252	331.198
303.4000	-3.34058	331.134
303.3000	-3.37901	331.027
303.2000	-3.37816	330.919
303.1000	-3.37359	330.839
303.0000	-3.43819	330.79
302.9000	-3.55398	330.686
302.8000	-3.60367	330.616
302.7000	-3.60235	330.565
302.6000	-3.59789	330.477
302.5000	-3.58413	330.428
302.4000	-3.60911	330.379
302.3000	-3.64575	330.29
302.2000	-3.65549	330.206
302.1000	-3.63177	330.128
302.0000	-3.6402	330.074
301.9000	-3.65635	329.987
301.8000	-3.68534	329.918
301.7000	-3.77755	329.863
301.6000	-3.78318	329.776
301.5000	-3.7881	329.728
301.4000	-3.76981	329.681
301.3000	-3.7629	329.61
301.2000	-3.75536	329.547
301.1000	-3.81912	329.489
301.0000	-3.80405	329.461
300.9000	-3.72458	329.398
300.8000	-3.6551	329.329
300.7000	-3.64967	329.274
300.6000	-3.6514	329.199
300.5000	-3.669	329.139
300.4000	-3.69985	329.094
300.3000	-3.63542	329.022
300.2000	-3.6265	328.951
300.1000	-3.71564	328.895
300.0000	-3.71556	328.836
299.9000	-3.69882	328.787
299.8000	-3.73443	328.74
299.7000	-3.79878	328.678
299.6000	-3.85185	328.622
299.5000	-3.90908	328.566
299.4000	-3.96819	328.524
299.3000	-3.94957	328.46
299.2000	-4.00818	328.409
299.1000	-4.07711	328.376
299.0000	-4.08207	328.316
298.9000	-4.04608	328.272
298.8000	-3.96589	328.245
298.7000	-3.92959	328.194
298.6000	-3.93641	328.15
298.5000	-3.96973	328.108
298.4000	-3.98275	328.053
298.3000	-3.97383	328.002
298.2000	-3.93935	327.954
298.1000	-3.94114	327.901
298.0000	-4.01434	327.849
297.9000	-4.07856	327.806
297.8000	-4.10063	327.746
297.7000	-4.12491	327.697
297.6000	-4.1084	327.665
297.5000	-4.10186	327.61
297.4000	-4.20488	327.567
297.3000	-4.30586	327.535
297.2000	-4.31884	327.48
297.1000	-4.30264	327.436
297.0000	-4.3158	327.395
296.9000	-4.27988	327.338
296.8000	-4.29917	327.292
296.7000	-4.316	327.256
296.6000	-4.29448	327.23
296.5000	-4.23538	327.186
296.4000	-4.21829	327.155
296.3000	-4.22278	327.135
296.2000	-4.2306	327.1
296.1000	-4.21583	327.074
296.0000	-4.1881	327.056
295.9000	-4.20319	327.02
295.8000	-4.2377	326.965
295.7000	-4.23954	326.936
295.6000	-4.26113	326.902
295.5000	-4.28449	326.847
295.4000	-4.26158	326.787
295.3000	-4.24527	326.753
295.2000	-4.31214	326.704
295.1000	-4.31196	326.646
295.0000	-4.3554	326.616
294.9000	-4.36284	326.572
294.8000	-4.34305	326.517
294.7000	-4.32118	326.488
294.6000	-4.30273	326.467
294.5000	-4.33526	326.428
294.4000	-4.37014	326.399
294.3000	-4.39967	326.378
294.2000	-4.42256	326.334
294.1000	-4.43263	326.305
294.0000	-4.47426	326.288
293.9000	-4.47476	326.249
293.8000	-4.49256	326.222
293.7000	-4.48073	326.203
293.6000	-4.4656	326.16
293.5000	-4.35747	326.113
293.4000	-4.3406	326.096
293.3000	-4.34924	326.058
293.2000	-4.37481	326.009
293.1000	-4.41086	325.989
293.0000	-4.48331	325.949
292.9000	-4.54558	325.907
292.8000	-4.55668	325.895
292.7000	-4.60751	325.876
292.6000	-4.64276	325.839
292.5000	-4.63385	325.792
292.4000	-4.64076	325.769
292.3000	-4.66227	325.73
292.2000	-4.64771	325.686
292.1000	-4.59855	325.663
292.0000	-4.58526	325.624
291.9000	-4.65405	325.574
291.8000	-4.70143	325.537
291.7000	-4.69261	325.526
291.6000	-4.65975	325.495
291.5000	-4.63859	325.456
291.4000	-4.61986	325.44
291.3000	-4.6666	325.396
291.2000	-4.75861	325.336
291.1000	-4.78532	325.272
291.0000	-4.82706	325.221
290.9000	-4.82986	325.149
290.8000	-4.81683	325.06
290.7000	-4.80841	324.966
290.6000	-4.81353	324.862
290.5000	-4.82476	324.737
290.4000	-4.79761	324.613
290.3000	-4.76345	324.513
290.2000	-4.71799	324.391
290.1000	-4.69563	324.264
290.0000	-4.73389	324.153
289.9000	-4.796	324.083
289.8000	-4.81388	324.029
289.7000	-4.84061	323.996
289.6000	-4.87093	324.008
289.5000	-4.90163	324.053
289.4000	-4.903	324.117
289.3000	-4.93578	324.206
289.2000	-5.01301	324.307
289.1000	-5.05673	324.42
289.0000	-5.10979	324.523
288.9000	-5.15954	324.617
288.8000	-5.19865	324.7
288.7000	-5.2235	324.764
288.6000	-5.31399	324.797
288.5000	-5.33941	324.823
288.4000	-5.27137	324.833
288.3000	-5.26642	324.833
288.2000	-5.22202	324.826
288.1000	-5.15301	324.81
288.0000	-5.06463	324.791
287.9000	-5.07942	324.75
287.8000	-5.06745	324.733
287.7000	-5.05339	324.718
287.6000	-5.08823	324.7
287.5000	-5.11115	324.679
287.4000	-5.10012	324.671
287.3000	-5.18187	324.654
287.2000	-5.24757	324.641
287.1000	-5.24031	324.629
287.0000	-5.20182	324.607
286.9000	-5.20903	324.595
286.8000	-5.25052	324.583
286.7000	-5.25535	324.573
286.6000	-5.24533	324.543
286.5000	-5.19372	324.535
286.4000	-5.1549	324.536
286.3000	-5.14965	324.532
286.2000	-5.17038	324.532
286.1000	-5.22516	324.515
286.0000	-5.23326	324.516
285.9000	-5.28802	324.514
285.8000	-5.32011	324.513
285.7000	-5.34361	324.504
285.6000	-5.3542	324.483
285.5000	-5.35371	324.486
285.4000	-5.34975	324.498
285.3000	-5.29479	324.507
285.2000	-5.22207	324.503
285.1000	-5.1725	324.49
285.0000	-5.13735	324.498
284.9000	-5.11511	324.502
284.8000	-5.13902	324.506
284.7000	-5.15402	324.5
284.6000	-5.14321	324.482
284.5000	-5.19735	324.483
284.4000	-5.30915	324.491
284.3000	-5.38656	324.499
284.2000	-5.4459	324.494
284.1000	-5.54535	324.483
284.0000	-5.56757	324.472
283.9000	-5.61549	324.479
283.8000	-5.66923	324.489
283.7000	-5.65981	324.492
283.6000	-5.58071	324.483
283.5000	-5.52665	324.481
283.4000	-5.49276	324.476
283.3000	-5.47159	324.495
283.2000	-5.4491	324.52
283.1000	-5.4456	324.524
283.0000	-5.49298	324.517
282.9000	-5.57353	324.505
282.8000	-5.61853	324.503
282.7000	-5.63619	324.519
282.6000	-5.66371	324.533
282.5000	-5.67566	324.541
282.4000	-5.69246	324.537
282.3000	-5.75748	324.538
282.2000	-5.80483	324.542
282.1000	-5.81464	324.569
282.0000	-5.83738	324.592
281.9000	-5.8841	324.598
281.8000	-5.9246	324.604
281.7000	-5.97622	324.604
281.6000	-5.98837	324.608
281.5000	-5.98197	324.61
281.4000	-5.92346	324.632
281.3000	-5.85519	324.643
281.2000	-5.80273	324.643
281.1000	-5.77563	324.643
281.0000	-5.76515	324.643
280.9000	-5.73189	324.642
280.8000	-5.64735	324.64
280.7000	-5.64578	324.645
280.6000	-5.65463	324.653
280.5000	-5.69989	324.647
280.4000	-5.75003	324.646
280.3000	-5.74648	324.646
280.2000	-5.76616	324.641
280.1000	-5.78579	324.64
280.0000	-5.84797	324.637
279.9000	-5.87613	324.629
279.8000	-5.8337	324.611
279.7000	-5.83159	324.61
279.6000	-5.81233	324.612
279.5000	-5.82601	324.609
279.4000	-5.81789	324.608
279.3000	-5.79353	324.604
279.2000	-5.73362	324.604
279.1000	-5.72564	324.606
279.0000	-5.80218	324.609
278.9000	-5.84051	324.603
278.8000	-5.8785	324.608
278.7000	-5.88877	324.616
278.6000	-5.84007	324.63
278.5000	-5.83462	324.646
278.4000	-5.90454	324.658
278.3000	-5.97562	324.671
278.2000	-5.99227	324.683
278.1000	-5.9779	324.697
278.0000	-5.93095	324.7
277.9000	-5.92194	324.699
277.8000	-5.95417	324.695
277.7000	-5.98172	324.691
277.6000	-5.99177	324.705
277.5000	-5.95893	324.718
277.4000	-5.94318	324.733
277.3000	-5.9566	324.751
277.2000	-5.99509	324.763
277.1000	-6.02846	324.775
277.0000	-6.05474	324.789
276.9000	-6.0523	324.809
276.8000	-6.10984	324.813
276.7000	-6.10848	324.813
276.6000	-6.09248	324.817
276.5000	-6.01557	324.822
276.4000	-5.96715	324.822
276.3000	-5.97476	324.819
276.2000	-5.97753	324.816
276.1000	-5.99597	324.815
276.0000	-5.99206	324.837
275.9000	-5.96586	324.86
275.8000	-6.06145	324.875
275.7000	-6.14088	324.888
275.6000	-6.17147	324.91
275.5000	-6.18201	324.932
275.4000	-6.20018	324.96
275.3000	-6.19662	324.985
275.2000	-6.21542	324.995
275.1000	-6.21077	325.002
275.0000	-6.14798	325.012
274.9000	-6.11981	325.021
274.8000	-6.19914	325.027
274.7000	-6.25155	325.037
274.6000	-6.22061	325.052
274.5000	-6.2549	325.06
274.4000	-6.24094	325.067
274.3000	-6.20482	325.076
274.2000	-6.18107	325.085
274.1000	-6.17021	325.097
274.0000	-6.14077	325.111
273.9000	-6.16422	325.122
273.8000	-6.20943	325.134
273.7000	-6.23341	325.148
273.6000	-6.26434	325.16
273.5000	-6.37233	325.166
273.4000	-6.42481	325.175
273.3000	-6.49963	325.187
273.2000	-6.52448	325.203
273.1000	-6.52786	325.219
273.0000	-6.48999	325.234
272.9000	-6.50578	325.245
272.8000	-6.45516	325.261
272.7000	-6.38353	325.287
272.6000	-6.36828	325.31
272.5000	-6.34168	325.331
272.4000	-6.35619	325.343
272.3000	-6.31543	325.358
272.2000	-6.28106	325.374
272.1000	-6.26263	325.392
272.0000	-6.22595	325.41
271.9000	-6.2951	325.424
271.8000	-6.36233	325.436
271.7000	-6.42466	325.451
271.6000	-6.40381	325.467
271.5000	-6.43464	325.484
271.4000	-6.54234	325.496
271.3000	-6.58612	325.507
271.2000	-6.62901	325.518
271.1000	-6.66519	325.53
271.0000	-6.60952	325.543
270.9000	-6.53617	325.541
270.8000	-6.53871	325.538
270.7000	-6.58453	325.535
270.6000	-6.5505	325.533
270.5000	-6.49503	325.529
270.4000	-6.52742	325.52
270.3000	-6.52762	325.51
270.2000	-6.5236	325.506
270.1000	-6.55972	325.514
270.0000	-6.62097	325.53
269.9000	-6.6078	325.543
269.8000	-6.61035	325.555
269.7000	-6.68137	325.571
269.6000	-6.71765	325.598
269.5000	-6.76512	325.627
269.4000	-6.8146	325.643
269.3000	-6.84431	325.66
269.2000	-6.82639	325.681
269.1000	-6.8078	325.701
269.0000	-6.78239	325.72
268.9000	-6.71049	325.742
268.8000	-6.70239	325.757
268.7000	-6.72116	325.771
268.6000	-6.73337	325.795
268.5000	-6.7593	325.828
268.4000	-6.80903	325.862
268.3000	-6.86694	325.883
268.2000	-6.91982	325.914
268.1000	-6.98673	325.943
268.0000	-7.00131	325.979
267.9000	-7.03076	326.02
267.8000	-7.01511	326.065
267.7000	-7.01728	326.107
267.6000	-7.06011	326.144
267.5000	-7.0816	326.189
267.4000	-7.0983	326.227
267.3000	-7.07092	326.27
267.2000	-7.0875	326.31
267.1000	-7.07707	326.352
267.0000	-7.08627	326.394
266.9000	-7.09639	326.437
266.8000	-7.06728	326.483
266.7000	-7.03155	326.515
266.6000	-6.97556	326.559
266.5000	-6.93782	326.61
266.4000	-6.883	326.66
266.3000	-6.87673	326.714
266.2000	-6.94197	326.764
266.1000	-6.95009	326.819
266.0000	-6.93838	326.852
265.9000	-6.99487	326.894
265.8000	-7.10099	326.947
265.7000	-7.22667	327.002
265.6000	-7.35385	327.069
265.5000	-7.40569	327.129
265.4000	-7.33449	327.171
265.3000	-7.30942	327.203
265.2000	-7.31757	327.254
265.1000	-7.28481	327.321
265.0000	-7.23628	327.381
264.9000	-7.2313	327.444
264.8000	-7.23235	327.482
264.7000	-7.23257	327.523
264.6000	-7.32372	327.579
264.5000	-7.41929	327.648
264.4000	-7.4019	327.721
264.3000	-7.44607	327.771
264.2000	-7.47966	327.823
264.1000	-7.47301	327.877
264.0000	-7.46761	327.934
263.9000	-7.45463	327.996
263.8000	-7.42726	328.051
263.7000	-7.34891	328.106
263.6000	-7.31526	328.159
263.5000	-7.32605	328.217
263.4000	-7.29775	328.288
263.3000	-7.33046	328.338
263.2000	-7.3309	328.394
263.1000	-7.34195	328.456
263.0000	-7.35923	328.526
262.9000	-7.36392	328.588
262.8000	-7.33766	328.66
262.7000	-7.31344	328.735
262.6000	-7.3034	328.811
262.5000	-7.25122	328.897
262.4000	-7.21406	328.969
262.3000	-7.21173	329.043
262.2000	-7.2423	329.111
262.1000	-7.29545	329.19
262.0000	-7.36885	329.25
261.9000	-7.49716	329.309
261.8000	-7.52552	329.378
261.7000	-7.51944	329.433
261.6000	-7.58133	329.496
261.5000	-7.63805	329.565
261.4000	-7.65327	329.636
261.3000	-7.58184	329.7
261.2000	-7.59171	329.775
261.1000	-7.61241	329.858
261.0000	-7.64408	329.942
260.9000	-7.68396	330.018
260.8000	-7.65557	330.102
260.7000	-7.63259	330.183
260.6000	-7.60355	330.253
260.5000	-7.64734	330.327
260.4000	-7.64628	330.412
260.3000	-7.61876	330.493
260.2000	-7.54572	330.554
260.1000	-7.51336	330.624
260.0000	-7.48566	330.708
259.9000	-7.47737	330.781
259.8000	-7.48735	330.867
259.7000	-7.479	330.951
259.6000	-7.48327	331.016
259.5000	-7.54538	331.075
259.4000	-7.56158	331.154
259.3000	-7.57582	331.236
259.2000	-7.70455	331.317
259.1000	-7.81811	331.403
259.0000	-7.88298	331.472
258.9000	-7.87634	331.544
258.8000	-7.91852	331.626
258.7000	-7.96269	331.702
258.6000	-7.94682	331.776
258.5000	-7.96783	331.85
258.4000	-7.90066	331.913
258.3000	-7.81774	331.979
258.2000	-7.7791	332.058
258.1000	-7.79819	332.133
258.0000	-7.77503	332.217
257.9000	-7.73193	332.311
257.8000	-7.74349	332.402
257.7000	-7.80037	332.499
257.6000	-7.92086	332.599
257.5000	-7.95983	332.691
257.4000	-7.93998	332.79
257.3000	-7.87538	332.885
257.2000	-7.87335	332.97
257.1000	-7.85759	333.051
257.0000	-7.82281	333.131
256.9000	-7.70324	333.211
256.8000	-7.64514	333.28
256.7000	-7.68927	333.353
256.6000	-7.76835	333.424
256.5000	-7.86433	333.495
256.4000	-7.90745	333.575
256.3000	-7.928	333.648
256.2000	-7.93091	333.725
256.1000	-8.02675	333.81
256.0000	-8.10902	333.886
255.9000	-8.11705	333.964
255.8000	-8.07275	334.028
255.7000	-8.01089	334.098
255.6000	-8.04505	334.172
255.5000	-8.06723	334.246
255.4000	-8.09557	334.324
255.3000	-8.09132	334.386
255.2000	-8.04768	334.457
255.1000	-8.03889	334.528
255.0000	-8.0577	334.609
254.9000	-8.10612	334.682
254.8000	-8.12843	334.754
254.7000	-8.09641	334.841
254.6000	-8.09328	334.931
254.5000	-8.11073	335.031
254.4000	-8.12614	335.125
254.3000	-8.15969	335.225
254.2000	-8.11222	335.32
254.1000	-8.11061	335.421
254.0000	-8.08162	335.517
253.9000	-8.05025	335.611
253.8000	-8.04436	335.684
253.7000	-8.02567	335.754
253.6000	-8.04252	335.816
253.5000	-8.08118	335.884
253.4000	-8.06828	335.953
253.3000	-8.07345	336.028
253.2000	-8.04829	336.102
253.1000	-8.07012	336.172
253.0000	-8.08638	336.243
252.9000	-8.1123	336.323
252.8000	-8.07355	336.409
252.7000	-7.97849	336.496
252.6000	-7.97185	336.568
252.5000	-8.03666	336.638
252.4000	-8.0746	336.709
252.3000	-8.12328	336.79
252.2000	-8.1452	336.869
252.1000	-8.19086	336.95
252.0000	-8.18904	337.029
251.9000	-8.26437	337.098
251.8000	-8.30337	337.183
251.7000	-8.2629	337.27
251.6000	-8.26613	337.359
251.5000	-8.27286	337.443
251.4000	-8.27207	337.541
251.3000	-8.29991	337.627
251.2000	-8.37126	337.7
251.1000	-8.43063	337.782
251.0000	-8.44134	337.863
250.9000	-8.48429	337.949
250.8000	-8.51411	338.03
250.7000	-8.55624	338.116
250.6000	-8.58524	338.184
250.5000	-8.56479	338.258
250.4000	-8.58566	338.358
250.3000	-8.61168	338.46
250.2000	-8.68285	338.568
250.1000	-8.77842	338.663
250.0000	-8.80552	338.756
249.9000	-8.77392	338.852
249.8000	-8.75196	338.944
249.7000	-8.83871	339.047
249.6000	-8.86442	339.14
249.5000	-8.82865	339.231
249.4000	-8.76323	339.323
249.3000	-8.68703	339.411
249.2000	-8.62945	339.496
249.1000	-8.58764	339.58
249.0000	-8.55478	339.665
248.9000	-8.50851	339.745
248.8000	-8.42358	339.831
248.7000	-8.41262	339.912
248.6000	-8.45645	339.988
248.5000	-8.47373	340.074
248.4000	-8.51765	340.168
248.3000	-8.58153	340.257
248.2000	-8.63979	340.357
248.1000	-8.67681	340.464
248.0000	-8.71021	340.564
247.9000	-8.74367	340.675
247.8000	-8.73817	340.783
247.7000	-8.71897	340.88
247.6000	-8.68853	340.971
247.5000	-8.7047	341.056
247.4000	-8.69446	341.14
247.3000	-8.78884	341.212
247.2000	-8.82728	341.291
247.1000	-8.8883	341.36
247.0000	-8.92324	341.433
246.9000	-8.99312	341.524
246.8000	-9.04079	341.61
246.7000	-9.12391	341.697
246.6000	-9.15601	341.779
246.5000	-9.17047	341.872
246.4000	-9.15706	341.965
246.3000	-9.09278	342.064
246.2000	-9.13176	342.161
246.1000	-9.20623	342.258
246.0000	-9.25729	342.353
245.9000	-9.22418	342.457
245.8000	-9.15594	342.569
245.7000	-9.16247	342.684
245.6000	-9.18267	342.791
245.5000	-9.21007	342.895
245.4000	-9.26074	342.996
245.3000	-9.23341	343.092
245.2000	-9.16742	343.205
245.1000	-9.19422	343.321
245.0000	-9.23775	343.436
244.9000	-9.30169	343.544
244.8000	-9.32789	343.651
244.7000	-9.31176	343.765
244.6000	-9.36275	343.875
244.5000	-9.34037	343.989
244.4000	-9.38067	344.098
244.3000	-9.4097	344.203
244.2000	-9.45422	344.31
244.1000	-9.40435	344.432
244.0000	-9.36985	344.556
243.9000	-9.33479	344.682
243.8000	-9.28746	344.81
243.7000	-9.19358	344.944
243.6000	-9.15011	345.073
243.5000	-9.15511	345.2
243.4000	-9.12585	345.338
243.3000	-9.13742	345.472
243.2000	-9.14986	345.606
243.1000	-9.15697	345.739
243.0000	-9.26835	345.87
242.9000	-9.41469	346.003
242.8000	-9.51308	346.133
242.7000	-9.49497	346.267
242.6000	-9.45961	346.39
242.5000	-9.50406	346.505
242.4000	-9.51976	346.631
242.3000	-9.55782	346.766
242.2000	-9.61851	346.905
242.1000	-9.64391	347.051
242.0000	-9.66199	347.198
241.9000	-9.62996	347.348
241.8000	-9.6751	347.498
241.7000	-9.66222	347.655
241.6000	-9.68193	347.807
241.5000	-9.77993	347.958
241.4000	-9.86687	348.109
241.3000	-9.90922	348.26
241.2000	-9.88064	348.413
241.1000	-9.91755	348.571
241.0000	-9.9451	348.729
240.9000	-9.93331	348.891
240.8000	-9.8851	349.059
240.7000	-9.80563	349.229
240.6000	-9.72072	349.396
240.5000	-9.605	349.564
240.4000	-9.58867	349.731
240.3000	-9.60133	349.906
240.2000	-9.61273	350.084
240.1000	-9.64528	350.264
240.0000	-9.71071	350.441
239.9000	-9.77798	350.618
239.8000	-9.83587	350.799
239.7000	-9.8236	350.988
239.6000	-9.77705	351.177
239.5000	-9.74693	351.363
239.4000	-9.74665	351.552
239.3000	-9.77444	351.747
239.2000	-9.771	351.946
239.1000	-9.76377	352.149
239.0000	-9.79978	352.354
238.9000	-9.85815	352.56
238.8000	-10.0107	352.764
238.7000	-10.131	352.974
238.6000	-10.2088	353.182
238.5000	-10.2246	353.393
238.4000	-10.299	353.604
238.3000	-10.3482	353.816
238.2000	-10.4546	354.025
238.1000	-10.4836	354.238
238.0000	-10.4289	354.457
237.9000	-10.343	354.677
237.8000	-10.4159	354.889
237.7000	-10.4767	355.103
237.6000	-10.4088	355.323
237.5000	-10.332	355.55
237.4000	-10.273	355.782
237.3000	-10.186	356.016
237.2000	-10.2034	356.251
237.1000	-10.1829	356.478
237.0000	-10.129	356.708
236.9000	-10.1171	356.939
236.8000	-10.1871	357.168
236.7000	-10.2683	357.397
236.6000	-10.329	357.614
236.5000	-10.389	357.833
236.4000	-10.4131	358.051
236.3000	-10.5001	358.274
236.2000	-10.6653	358.504
236.1000	-10.7215	358.731
236.0000	-10.6328	358.966
235.9000	-10.625	359.202
235.8000	-10.6467	359.449
235.7000	-10.7344	359.687
235.6000	-10.8222	359.924
235.5000	-10.8706	360.166
235.4000	-10.8034	360.412
235.3000	-10.7351	360.661
235.2000	-10.7538	360.911
235.1000	-10.8097	361.161
235.0000	-10.8313	361.413
234.9000	-10.8187	361.668
234.8000	-10.7463	361.928
234.7000	-10.7155	362.19
234.6000	-10.7834	362.443
234.5000	-10.8199	362.702
234.4000	-10.8759	362.962
234.3000	-10.9803	363.218
234.2000	-10.9643	363.474
234.1000	-10.9792	363.733
234.0000	-11.0085	363.988
233.9000	-11.155	364.243
233.8000	-11.1691	364.509
233.7000	-11.1826	364.771
233.6000	-11.2421	365.038
233.5000	-11.2202	365.311
233.4000	-11.2284	365.578
233.3000	-11.3389	365.844
233.2000	-11.3015	366.127
233.1000	-11.3195	366.402
233.0000	-11.2727	366.679
232.9000	-11.2397	366.957
232.8000	-11.2216	367.238
232.7000	-11.2532	367.513
232.6000	-11.2355	367.785
232.5000	-11.2258	368.061
232.4000	-11.2902	368.325
232.3000	-11.3153	368.594
232.2000	-11.3137	368.862
232.1000	-11.4016	369.133
232.0000	-11.4993	369.397
231.9000	-11.5264	369.663
231.8000	-11.6157	369.928
231.7000	-11.7168	370.202
231.6000	-11.8078	370.481
231.5000	-11.8686	370.758
231.4000	-11.9093	371.041
231.3000	-11.99	371.314
231.2000	-12.0087	371.597
231.1000	-12.0531	371.877
231.0000	-12.1306	372.154
230.9000	-12.1995	372.434
230.8000	-12.1895	372.708
230.7000	-12.1996	372.988
230.6000	-12.2817	373.267
230.5000	-12.3459	373.554
230.4000	-12.3477	373.843
230.3000	-12.2739	374.138
230.2000	-12.2428	374.433
230.1000	-12.209	374.729
230.0000	-12.1932	375.02
229.9000	-12.1921	375.304
229.8000	-12.0995	375.588
229.7000	-12.0343	375.865
229.6000	-12.0191	376.14
229.5000	-12.0874	376.4
229.4000	-12.2168	376.648
229.3000	-12.1755	376.901
229.2000	-12.2158	377.149
229.1000	-12.2908	377.395
229.0000	-12.4713	377.643
228.9000	-12.5776	377.895
228.8000	-12.689	378.146
228.7000	-12.7517	378.414
228.6000	-12.7929	378.696
228.5000	-12.7917	378.985
228.4000	-12.7965	379.287
228.3000	-12.828	379.595
228.2000	-12.7592	379.91
228.1000	-12.8015	380.226
228.0000	-12.7609	380.546
227.9000	-12.8233	380.859
227.8000	-12.8112	381.165
227.7000	-12.7362	381.479
227.6000	-12.7978	381.778
227.5000	-12.7995	382.07
227.4000	-12.7464	382.362
227.3000	-12.6763	382.656
227.2000	-12.668	382.944
227.1000	-12.6645	383.232
227.0000	-12.6851	383.515
226.9000	-12.7162	383.791
226.8000	-12.7706	384.069
226.7000	-12.8099	384.349
226.6000	-12.9612	384.626
226.5000	-13.0157	384.897
226.4000	-13.2099	385.154
226.3000	-13.384	385.408
226.2000	-13.4362	385.675
226.1000	-13.442	385.945
226.0000	-13.5004	386.208
225.9000	-13.4685	386.469
225.8000	-13.4168	386.731
225.7000	-13.3772	386.998
225.6000	-13.3551	387.266
225.5000	-13.1622	387.539
225.4000	-13.1067	387.806
225.3000	-13.1627	388.071
225.2000	-13.2092	388.339
225.1000	-13.2406	388.609
225.0000	-13.2653	388.88
224.9000	-13.3257	389.142
224.8000	-13.347	389.404
224.7000	-13.3591	389.669
224.6000	-13.4577	389.928
224.5000	-13.504	390.186
224.4000	-13.521	390.439
224.3000	-13.5796	390.695
224.2000	-13.7502	390.946
224.1000	-13.8524	391.199
224.0000	-13.8283	391.458
223.9000	-13.7756	391.718
223.8000	-13.7132	391.978
223.7000	-13.6413	392.238
223.6000	-13.6632	392.495
223.5000	-13.7093	392.753
223.4000	-13.5232	393.011
223.3000	-13.42	393.26
223.2000	-13.4349	393.504
223.1000	-13.5139	393.745
223.0000	-13.5548	393.99
222.9000	-13.5624	394.233
222.8000	-13.6032	394.472
222.7000	-13.5248	394.715
222.6000	-13.5366	394.955
222.5000	-13.5363	395.205
222.4000	-13.5722	395.451
222.3000	-13.6139	395.696
222.2000	-13.6582	395.94
222.1000	-13.6763	396.186
222.0000	-13.6447	396.438
221.9000	-13.5366	396.682
221.8000	-13.4879	396.924
221.7000	-13.5808	397.163
221.6000	-13.7089	397.401
221.5000	-13.7061	397.645
221.4000	-13.6329	397.882
221.3000	-13.5125	398.118
221.2000	-13.5064	398.349
221.1000	-13.6406	398.579
221.0000	-13.8851	398.803
220.9000	-13.8894	399.034
220.8000	-13.8062	399.27
220.7000	-13.8536	399.495
220.6000	-13.9094	399.725
220.5000	-14.1213	399.956
220.4000	-14.3079	400.18
220.3000	-14.2306	400.412
220.2000	-14.0119	400.648
220.1000	-13.9999	400.875
220.0000	-13.9709	401.098
219.9000	-13.8831	401.329
219.8000	-13.7652	401.556
219.7000	-13.685	401.778
219.6000	-13.6268	402
219.5000	-13.7083	402.221
219.4000	-13.8311	402.442
219.3000	-13.8293	402.667
219.2000	-13.7963	402.895
219.1000	-13.6962	403.121
219.0000	-13.6736	403.35
218.9000	-13.6697	403.578
218.8000	-13.6772	403.806
218.7000	-13.5856	404.034
218.6000	-13.562	404.261
218.5000	-13.7409	404.478
218.4000	-13.9211	404.697
218.3000	-14.1492	404.911
218.2000	-14.3925	405.123
218.1000	-14.5271	405.334
218.0000	-14.6336	405.549
217.9000	-14.64	405.761
217.8000	-14.6695	405.966
217.7000	-14.6885	406.175
217.6000	-14.4894	406.388
217.5000	-14.4107	406.603
217.4000	-14.3515	406.815
217.3000	-14.0992	407.031
217.2000	-13.7526	407.252
217.1000	-13.6519	407.47
217.0000	-13.6752	407.683
216.9000	-13.6675	407.9
216.8000	-13.6944	408.115
216.7000	-13.6591	408.325
216.6000	-13.4809	408.544
216.5000	-13.5988	408.754
216.4000	-13.7861	408.958
216.3000	-13.9442	409.158
216.2000	-13.9575	409.374
216.1000	-13.9595	409.588
216.0000	-13.9623	409.798
215.9000	-14.0291	410.006
215.8000	-14.2095	410.21
215.7000	-14.1671	410.429
215.6000	-14.1006	410.651
215.5000	-14.0647	410.872
215.4000	-14.0475	411.089
215.3000	-13.9516	411.306
215.2000	-13.9601	411.522
215.1000	-13.9919	411.747
215.0000	-13.8475	411.977
214.9000	-13.7468	412.203
214.8000	-13.8631	412.421
214.7000	-13.9705	412.641
214.6000	-14.1053	412.859
214.5000	-14.3647	413.075
214.4000	-14.4379	413.298
214.3000	-14.352	413.524
214.2000	-14.3989	413.745
214.1000	-14.5835	413.959
214.0000	-14.7943	414.174
213.9000	-14.9124	414.395
213.8000	-14.8982	414.621
213.7000	-14.7635	414.854
213.6000	-14.7	415.086
213.5000	-14.7501	415.318
213.4000	-14.8109	415.551
213.3000	-14.8159	415.791
213.2000	-14.6733	416.039
213.1000	-14.6253	416.284
213.0000	-14.6476	416.529
212.9000	-14.5743	416.779
212.8000	-14.5017	417.025
212.7000	-14.5509	417.268
212.6000	-14.586	417.514
212.5000	-14.6552	417.762
212.4000	-14.707	418.009
212.3000	-14.6551	418.254
212.2000	-14.7516	418.494
212.1000	-14.8772	418.738
212.0000	-15.0324	418.99
211.9000	-15.0566	419.251
211.8000	-15.0795	419.507
211.7000	-15.0974	419.764
211.6000	-15.1258	420.028
211.5000	-15.1225	420.293
211.4000	-15.0343	420.568
211.3000	-14.7935	420.853
211.2000	-14.6173	421.128
211.1000	-14.4891	421.404
211.0000	-14.3439	421.686
210.9000	-14.2833	421.965
210.8000	-14.3078	422.238
210.7000	-14.3587	422.518
210.6000	-14.472	422.794
210.5000	-14.6801	423.068
210.4000	-14.761	423.347
210.3000	-14.9706	423.627
210.2000	-15.0835	423.904
210.1000	-15.1853	424.187
210.0000	-15.0935	424.477
209.9000	-15.0944	424.766
209.8000	-15.1043	425.051
209.7000	-15.09	425.34
209.6000	-15.2624	425.624
209.5000	-15.1911	425.921
209.4000	-15.079	426.22
209.3000	-14.8637	426.522
209.2000	-14.7643	426.827
209.1000	-14.6837	427.13
209.0000	-14.6418	427.436
208.9000	-14.525	427.755
208.8000	-14.5222	428.067
208.7000	-14.5533	428.377
208.6000	-14.5604	428.697
208.5000	-14.638	429.017
208.4000	-14.685	429.338
208.3000	-14.66	429.668
208.2000	-14.5911	430
208.1000	-14.5783	430.325
208.0000	-14.4413	430.654
207.9000	-14.4691	430.982
207.8000	-14.5482	431.306
207.7000	-14.5239	431.632
207.6000	-14.672	431.957
207.5000	-14.8087	432.278
207.4000	-15.1046	432.596
207.3000	-15.3418	432.914
207.2000	-15.494	433.236
207.1000	-15.4324	433.566
207.0000	-15.5003	433.894
206.9000	-15.6587	434.223
206.8000	-15.7237	434.554
206.7000	-15.7583	434.889
206.6000	-15.667	435.228
206.5000	-15.5722	435.569
206.4000	-15.4708	435.915
206.3000	-15.4581	436.259
206.2000	-15.2072	436.604
206.1000	-15.0041	436.944
206.0000	-14.7771	437.288
205.9000	-14.7286	437.626
205.8000	-14.7223	437.963
205.7000	-14.7154	438.303
205.6000	-14.7233	438.645
205.5000	-14.8235	438.986
205.4000	-14.9712	439.327
205.3000	-14.9951	439.677
205.2000	-15.277	440.022
205.1000	-15.5394	440.374
205.0000	-15.502	440.736
204.9000	-15.3322	441.107
204.8000	-15.0807	441.485
204.7000	-14.7167	441.874
204.6000	-14.5533	442.258
204.5000	-14.6379	442.641
204.4000	-14.5857	443.029
204.3000	-14.337	443.425
204.2000	-14.0758	443.829
204.1000	-14.1367	444.221
204.0000	-14.2884	444.615
203.9000	-14.4999	445.007
203.8000	-14.4495	445.41
203.7000	-14.2376	445.823
203.6000	-14.0838	446.237
203.5000	-13.8604	446.659
203.4000	-13.9332	447.077
203.3000	-13.9591	447.502
203.2000	-13.911	447.936
203.1000	-13.9262	448.368
203.0000	-13.9983	448.806
202.9000	-14.0256	449.251
202.8000	-13.919	449.701
202.7000	-13.8929	450.153
202.6000	-13.8345	450.606
202.5000	-13.9046	451.055
202.4000	-13.7129	451.516
202.3000	-13.491	451.989
202.2000	-13.261	452.465
202.1000	-13.0898	452.942
202.0000	-13.2786	453.414
201.9000	-13.5778	453.892
201.8000	-13.78	454.382
201.7000	-13.6699	454.891
201.6000	-13.5289	455.412
201.5000	-13.5859	455.926
201.4000	-13.6462	456.449
201.3000	-13.5438	456.986
201.2000	-13.2586	457.536
201.1000	-12.8384	458.099
201.0000	-12.5043	458.664
200.9000	-12.4047	459.23
200.8000	-12.2654	459.802
200.7000	-11.958	460.391
200.6000	-11.834	460.988
200.5000	-11.8054	461.595
200.4000	-11.8363	462.212
200.3000	-11.6797	462.843
200.2000	-11.4331	463.489
200.1000	-11.0668	464.145
200.0000	-10.7671	464.811
199.9000	-10.7168	465.478
199.8000	-10.7588	466.146
199.7000	-10.6135	466.819
199.6000	-10.6905	467.497
199.5000	-10.8819	468.186
199.4000	-11.0152	468.885
199.3000	-11.0707	469.595
199.2000	-11.2396	470.32
199.1000	-11.3528	471.06
199.0000	-11.375	471.823
198.9000	-11.3108	472.613
198.8000	-11.2506	473.424
198.7000	-11.1836	474.261
198.6000	-10.9042	475.123
198.5000	-10.7573	476.011
198.4000	-10.6005	476.92
198.3000	-10.4155	477.853
198.2000	-10.3718	478.814
198.1000	-10.1578	479.81
198.0000	-10.0082	480.84
197.9000	-9.85325	481.9
197.8000	-9.98434	482.991
197.7000	-10.0846	484.118
197.6000	-9.98496	485.275
197.5000	-10.0102	486.454
197.4000	-9.88401	487.651
197.3000	-9.60748	488.862
197.2000	-9.58826	490.057
197.1000	-9.40943	491.246
197.0000	-9.13057	492.433
196.9000	-8.81136	493.622
196.8000	-8.71235	494.817
196.7000	-8.49549	496.037
196.6000	-8.03002	497.298
196.5000	-7.99402	498.586
196.4000	-8.01321	499.941
196.3000	-7.99452	501.369
196.2000	-8.2215	502.86
196.1000	-8.25903	504.43
196.0000	-8.47556	506.076
195.9000	-8.5808	507.826
195.8000	-8.76286	509.674
195.7000	-8.917	511.643
195.6000	-9.13203	513.729
195.5000	-9.32926	515.952
195.4000	-9.3149	518.303
195.3000	-9.11538	520.777
195.2000	-8.33268	523.352
195.1000	-8.01948	525.985
195.0000	-8.00438	528.619
194.9000	-8.1782	531.194
194.8000	-7.84456	533.687
194.7000	-7.77341	536.06
194.6000	-7.06896	538.35
194.5000	-6.61011	540.547
194.4000	-6.66453	542.679
194.3000	-6.37852	544.772
194.2000	-6.11511	546.895
194.1000	-5.89363	549.124
194.0000	-5.75209	551.525
193.9000	-5.36774	554.158
193.8000	-5.59216	557.027
193.7000	-5.57008	560.183
193.6000	-5.97665	563.629
193.5000	-6.60202	567.424
193.4000	-7.15497	571.595
193.3000	-7.28881	576.157
193.2000	-7.88778	581.08
193.1000	-8.00299	586.375
193.0000	-7.7883	591.958
192.9000	-7.76567	597.76
192.8000	-7.51502	603.69
192.7000	-7.27077	609.596
192.6000	-6.79672	615.284
192.5000	-6.87476	620.581
192.4000	-6.67169	625.469
192.3000	-6.51467	629.945
192.2000	-7.24803	634.011
192.1000	-7.96696	637.709
192.0000	-8.64517	641.165
191.9000	-8.45426	644.567
191.8000	-7.80529	648.169
191.7000	-8.26253	652.179
191.6000	-9.79693	656.743
191.5000	-10.7713	661.924
191.4000	-10.6904	667.772
191.3000	-10.753	674.389
191.2000	-10.5011	681.809
191.1000	-11.7678	689.956
191.0000	-12.3545	698.832
190.9000	-11.8903	708.327
190.8000	-8.48345	718.348
190.7000	-6.73489	728.692
190.6000	-6.92646	739.267
190.5000	-6.05443	749.829
190.4000	-6.5412	760.004
190.3000	-3.27534	769.741
190.2000	-1.57347	778.766
190.1000	0.746849	787.075
190.0000	2	794.663

##### Extended Information
[Comments]
Sample name	ACE2_D2_0.6uM
Comment
User
Division
Company	CSIR-IMTECH

[Detailed Information]
Creation date	2/26/2024 4:52 PM

Data array type	Linear data array * 2
Horizontal axis	Wavelength [nm]
Vertical axis(1)	CD [mdeg]
Vertical axis(2)	HT [V]
Start	350 nm
End	190 nm
Data interval	0.1 nm
Data points	1601    

[Measurement Information]
Instrument Name	JASCO CD
Model Name	J-815
Serial No.	B063061168

Measurement date	2/26/2024 4:50 PM

Photometric Mode	CD, HT
Measure Range	350 - 190 nm
Data pitch	0.1 nm
Sensitivity	Standard
D.I.T.	1 sec
Bandwidth	1.00 nm
Start Mode	Immediately
Scanning Speed	50 nm/min
Baseline Correction	None
Shutter Control	Manual
CD Detector	PMT
PMT Voltage	Auto
Accumulations	3
Concentration	0.6 umol/L

