TITLE	D2_0.6uM
DATA TYPE	
ORIGIN	JASCO
OWNER	
DATE	24/03/11
TIME	13:20:25
SPECTROMETER/DATA SYSTEM	
LOCALE	1033
RESOLUTION	
DELTAX	-0.1
XUNITS	NANOMETERS
YUNITS	Mol. Ellip.
Y2UNITS	HT [V]
FIRSTX	  350.0000
LASTX	  190.0000
NPOINTS	    1601
FIRSTY	-1703207.12500
MAXY	1704469.37500
MINY	-2208692.75000
XYDATA
350.0000	-1.70321E+006	472.506
349.9000	-1.65473E+006	471.934
349.8000	-1.68516E+006	471.056
349.7000	-1.65008E+006	470.165
349.6000	-1.59331E+006	469.513
349.5000	-1.40735E+006	468.941
349.4000	-1.29077E+006	468.068
349.3000	-1.25672E+006	467.44
349.2000	-1.09598E+006	466.904
349.1000	-875263	466.063
349.0000	-407621	465.458
348.9000	-498577	464.921
348.8000	-713089	464.091
348.7000	-643411	463.258
348.6000	-843614	462.647
348.5000	-935805	462.106
348.4000	-1.3115E+006	461.221
348.3000	-1.25968E+006	460.566
348.2000	-1.35777E+006	459.98
348.1000	-1.20459E+006	459.104
348.0000	-670259	458.449
347.9000	-401897	457.867
347.8000	-41354	457.013
347.7000	239012	456.156
347.6000	682859	455.55
347.5000	999789	455.043
347.4000	1.27168E+006	454.257
347.3000	1.38904E+006	453.679
347.2000	1.27872E+006	453.187
347.1000	1.2386E+006	452.453
347.0000	1.40615E+006	451.922
346.9000	1.53809E+006	451.461
346.8000	1.70447E+006	450.718
346.7000	1.68956E+006	449.958
346.6000	1.49789E+006	449.392
346.5000	1.28545E+006	448.645
346.4000	1.11095E+006	447.884
346.3000	827724	447.283
346.2000	454491	446.483
346.1000	135312	445.671
346.0000	59597.8	445.074
345.9000	-316361	444.555
345.8000	-582637	443.773
345.7000	-535756	443.202
345.6000	-216967	442.717
345.5000	92263.9	441.988
345.4000	-38860.5	441.458
345.3000	-336277	441.009
345.2000	-413014	440.334
345.1000	-606701	439.651
345.0000	-293203	439.158
344.9000	-63240.2	438.493
344.8000	-142171	437.804
344.7000	-334027	437.28
344.6000	-95699.1	436.639
344.5000	291284	435.987
344.4000	325088	435.488
344.3000	508301	434.801
344.2000	577566	434.099
344.1000	545003	433.579
344.0000	784921	432.943
343.9000	876317	432.306
343.8000	686945	431.828
343.7000	725546	431.411
343.6000	925340	430.748
343.5000	965803	430.272
343.4000	991732	429.877
343.3000	1.12917E+006	429.265
343.2000	1.14168E+006	428.807
343.1000	924451	428.393
343.0000	1.07052E+006	427.777
342.9000	892247	427.139
342.8000	768172	426.676
342.7000	835195	426.092
342.6000	565256	425.49
342.5000	245719	425.036
342.4000	-122367	424.438
342.3000	-307577	423.833
342.2000	-470286	423.38
342.1000	-544687	422.823
342.0000	-463634	422.272
341.9000	-431730	421.872
341.8000	-476368	421.316
341.7000	-423948	420.755
341.6000	-179937	420.352
341.5000	5051.77	419.842
341.4000	227745	419.324
341.3000	464922	418.931
341.2000	266389	418.357
341.1000	-2440.95	417.764
341.0000	-98731.3	417.33
340.9000	48320.5	416.768
340.8000	81874	416.189
340.7000	272764	415.741
340.6000	143766	415.171
340.5000	25316.4	414.591
340.4000	195468	414.174
340.3000	442292	413.657
340.2000	540567	413.137
340.1000	466435	412.768
340.0000	36922	412.292
339.9000	-398208	411.814
339.8000	-672884	411.463
339.7000	-780090	411.025
339.6000	-1.06208E+006	410.578
339.5000	-1.45171E+006	410.253
339.4000	-1.60339E+006	409.784
339.3000	-1.69234E+006	409.289
339.2000	-1.38195E+006	408.76
339.1000	-962766	408.283
339.0000	-704310	407.786
338.9000	-555195	407.223
338.8000	-229068	406.711
338.7000	-105325	406.186
338.6000	126595	405.629
338.5000	336718	405.146
338.4000	169735	404.78
338.3000	40921.7	404.333
338.2000	63592.3	403.884
338.1000	11828.8	403.565
338.0000	93035.5	403.151
337.9000	95718.7	402.73
337.8000	175362	402.442
337.7000	149230	402.051
337.6000	179400	401.651
337.5000	86786.6	401.343
337.4000	-219263	400.941
337.3000	-324581	400.527
337.2000	-545467	400.056
337.1000	-637498	399.632
337.0000	-640606	399.209
336.9000	-798434	398.749
336.8000	-966593	398.345
336.7000	-694058	397.949
336.6000	-596460	397.511
336.5000	-684456	397.108
336.4000	-811632	396.831
336.3000	-752722	396.447
336.2000	-581064	396.057
336.1000	-505103	395.77
336.0000	-310698	395.398
335.9000	-376498	395.003
335.8000	-136826	394.572
335.7000	30542.3	394.186
335.6000	327807	393.792
335.5000	321458	393.382
335.4000	189271	393.024
335.3000	56120.5	392.662
335.2000	-131756	392.277
335.1000	-179002	391.945
335.0000	-439278	391.718
334.9000	-672464	391.392
334.8000	-606428	391.062
334.7000	-569709	390.698
334.6000	-647778	390.373
334.5000	-683456	390.04
334.4000	-603992	389.657
334.3000	-500628	389.307
334.2000	-392688	388.945
334.1000	-445475	388.547
334.0000	-416545	388.198
333.9000	-428534	387.941
333.8000	-372204	387.607
333.7000	-271066	387.264
333.6000	-328146	386.898
333.5000	-372308	386.584
333.4000	-444913	386.263
333.3000	-482671	385.923
333.2000	-514854	385.629
333.1000	-664479	385.326
333.0000	-804831	385.007
332.9000	-1.03238E+006	384.721
332.8000	-1.22248E+006	384.381
332.7000	-1.2742E+006	384.075
332.6000	-1.21647E+006	383.763
332.5000	-1.08057E+006	383.43
332.4000	-1.10635E+006	383.134
332.3000	-1.13097E+006	382.834
332.2000	-1.11372E+006	382.486
332.1000	-795642	382.169
332.0000	-456481	381.841
331.9000	-152618	381.567
331.8000	-25214.1	381.284
331.7000	15171.9	380.967
331.6000	58501.2	380.677
331.5000	71190.9	380.274
331.4000	66092.2	379.96
331.3000	-167219	379.681
331.2000	-387765	379.367
331.1000	-430893	379.09
331.0000	-500066	378.804
330.9000	-701046	378.513
330.8000	-775695	378.257
330.7000	-751047	377.955
330.6000	-741267	377.684
330.5000	-684425	377.412
330.4000	-680343	377.135
330.3000	-750239	376.897
330.2000	-830771	376.532
330.1000	-822974	376.228
330.0000	-866828	375.949
329.9000	-852186	375.655
329.8000	-842188	375.4
329.7000	-749953	375.038
329.6000	-561841	374.737
329.5000	-611062	374.456
329.4000	-597813	374.176
329.3000	-511547	373.94
329.2000	-536901	373.587
329.1000	-560334	373.308
329.0000	-431150	373.073
328.9000	-323454	372.847
328.8000	-394165	372.656
328.7000	-412553	372.332
328.6000	-515647	372.067
328.5000	-652270	371.829
328.4000	-696109	371.596
328.3000	-624961	371.403
328.2000	-695227	371.081
328.1000	-721769	370.8
328.0000	-830068	370.533
327.9000	-881269	370.278
327.8000	-822752	370.067
327.7000	-678040	369.766
327.6000	-508152	369.519
327.5000	-555667	369.292
327.4000	-654497	369.05
327.3000	-948628	368.845
327.2000	-948420	368.548
327.1000	-885125	368.308
327.0000	-880969	368.093
326.9000	-925593	367.872
326.8000	-966604	367.68
326.7000	-1.12395E+006	367.381
326.6000	-1.08294E+006	367.146
326.5000	-794237	366.951
326.4000	-664077	366.729
326.3000	-794060	366.535
326.2000	-933737	366.283
326.1000	-1.03687E+006	366.078
326.0000	-1.14108E+006	365.781
325.9000	-1.11939E+006	365.557
325.8000	-979614	365.377
325.7000	-1.03174E+006	365.181
325.6000	-1.02522E+006	365.048
325.5000	-1.00514E+006	364.771
325.4000	-923938	364.525
325.3000	-736046	364.299
325.2000	-528349	364.121
325.1000	-381750	363.972
325.0000	-423234	363.696
324.9000	-449183	363.422
324.8000	-547862	363.106
324.7000	-473266	362.918
324.6000	-409618	362.795
324.5000	-470517	362.538
324.4000	-509858	362.302
324.3000	-635927	362.076
324.2000	-602127	361.938
324.1000	-680049	361.683
324.0000	-655777	361.453
323.9000	-631492	361.234
323.8000	-727359	361.042
323.7000	-619171	360.945
323.6000	-605311	360.681
323.5000	-643881	360.401
323.4000	-600883	360.128
323.3000	-627973	359.971
323.2000	-585588	359.87
323.1000	-495907	359.621
323.0000	-416854	359.345
322.9000	-281283	359.033
322.8000	-287910	358.862
322.7000	-464953	358.617
322.6000	-485916	358.359
322.5000	-495724	358.103
322.4000	-543080	357.844
322.3000	-594075	357.675
322.2000	-659471	357.384
322.1000	-749009	357.091
322.0000	-846113	356.82
321.9000	-738024	356.661
321.8000	-627635	356.378
321.7000	-503803	356.086
321.6000	-395888	355.792
321.5000	-324228	355.529
321.4000	-192130	355.41
321.3000	-169573	355.222
321.2000	-76240.6	355.032
321.1000	-189148	354.845
321.0000	-345329	354.803
320.9000	-454530	354.679
320.8000	-486016	354.549
320.7000	-421033	354.426
320.6000	-449811	354.29
320.5000	-369100	354.247
320.4000	-445866	354.085
320.3000	-391206	353.908
320.2000	-123778	353.739
320.1000	28348.6	353.674
320.0000	37516.8	353.494
319.9000	-139484	353.288
319.8000	-298632	353.08
319.7000	-544425	352.864
319.6000	-690693	352.62
319.5000	-724269	352.429
319.4000	-845426	352.22
319.3000	-1.03178E+006	351.999
319.2000	-1.17725E+006	351.889
319.1000	-1.13192E+006	351.692
319.0000	-1.16144E+006	351.481
318.9000	-1.06381E+006	351.277
318.8000	-1.05262E+006	351.17
318.7000	-1.18596E+006	350.977
318.6000	-1.23188E+006	350.78
318.5000	-1.38907E+006	350.592
318.4000	-1.53347E+006	350.4
318.3000	-1.50916E+006	350.191
318.2000	-1.47693E+006	350.036
318.1000	-1.49234E+006	349.873
318.0000	-1.41158E+006	349.703
317.9000	-1.19731E+006	349.633
317.8000	-1.0866E+006	349.492
317.7000	-956866	349.336
317.6000	-744626	349.16
317.5000	-624273	349.072
317.4000	-659867	348.902
317.3000	-560001	348.726
317.2000	-633117	348.548
317.1000	-808519	348.364
317.0000	-898563	348.136
316.9000	-917259	347.95
316.8000	-1.09314E+006	347.771
316.7000	-1.14092E+006	347.589
316.6000	-1.10106E+006	347.401
316.5000	-1.1714E+006	347.252
316.4000	-1.17109E+006	347.099
316.3000	-1.07332E+006	346.936
316.2000	-923234	346.758
316.1000	-979455	346.619
316.0000	-949623	346.481
315.9000	-925038	346.325
315.8000	-1.01595E+006	346.234
315.7000	-1.11103E+006	346.068
315.6000	-1.0686E+006	345.912
315.5000	-1.14724E+006	345.737
315.4000	-1.27625E+006	345.641
315.3000	-1.38399E+006	345.457
315.2000	-1.5251E+006	345.264
315.1000	-1.70577E+006	345.08
315.0000	-1.78568E+006	344.897
314.9000	-1.71426E+006	344.721
314.8000	-1.78292E+006	344.574
314.7000	-1.87617E+006	344.421
314.6000	-1.91486E+006	344.266
314.5000	-1.82E+006	344.12
314.4000	-1.61489E+006	344.021
314.3000	-1.45189E+006	343.9
314.2000	-1.3691E+006	343.779
314.1000	-1.34802E+006	343.608
314.0000	-1.24352E+006	343.461
313.9000	-1.14879E+006	343.322
313.8000	-1.04452E+006	343.187
313.7000	-1.01258E+006	342.981
313.6000	-948311	342.793
313.5000	-847229	342.621
313.4000	-793217	342.452
313.3000	-725543	342.285
313.2000	-717679	342.148
313.1000	-709677	342.003
313.0000	-662889	341.855
312.9000	-555117	341.714
312.8000	-643498	341.614
312.7000	-751951	341.495
312.6000	-749599	341.372
312.5000	-783603	341.202
312.4000	-942739	341.044
312.3000	-1.17248E+006	340.88
312.2000	-1.20753E+006	340.715
312.1000	-1.34343E+006	340.487
312.0000	-1.39841E+006	340.281
311.9000	-1.43853E+006	340.087
311.8000	-1.57774E+006	339.85
311.7000	-1.58938E+006	339.68
311.6000	-1.50178E+006	339.526
311.5000	-1.44374E+006	339.39
311.4000	-1.51141E+006	339.199
311.3000	-1.55331E+006	339.09
311.2000	-1.59818E+006	339.002
311.1000	-1.50161E+006	338.928
311.0000	-1.32215E+006	338.823
310.9000	-1.14437E+006	338.74
310.8000	-1.1044E+006	338.644
310.7000	-1.04865E+006	338.56
310.6000	-982176	338.427
310.5000	-999594	338.314
310.4000	-939706	338.205
310.3000	-875738	338.101
310.2000	-943635	338.005
310.1000	-1.10826E+006	337.924
310.0000	-1.21953E+006	337.842
309.9000	-1.25121E+006	337.767
309.8000	-1.29927E+006	337.699
309.7000	-1.26677E+006	337.624
309.6000	-1.20907E+006	337.563
309.5000	-1.28427E+006	337.448
309.4000	-1.32542E+006	337.354
309.3000	-1.16599E+006	337.234
309.2000	-1.12654E+006	337.128
309.1000	-1.02428E+006	336.948
309.0000	-912411	336.802
308.9000	-807221	336.671
308.8000	-806521	336.549
308.7000	-809828	336.444
308.6000	-868858	336.358
308.5000	-961716	336.255
308.4000	-1.02061E+006	336.136
308.3000	-1.09682E+006	336.071
308.2000	-1.15102E+006	335.979
308.1000	-1.22765E+006	335.908
308.0000	-1.31585E+006	335.805
307.9000	-1.34735E+006	335.719
307.8000	-1.23695E+006	335.585
307.7000	-1.20016E+006	335.483
307.6000	-1.23786E+006	335.363
307.5000	-1.23157E+006	335.202
307.4000	-1.27101E+006	335.08
307.3000	-1.36559E+006	334.957
307.2000	-1.31302E+006	334.861
307.1000	-1.25544E+006	334.734
307.0000	-1.22043E+006	334.646
306.9000	-1.27479E+006	334.552
306.8000	-1.22841E+006	334.491
306.7000	-1.1663E+006	334.425
306.6000	-1.15128E+006	334.336
306.5000	-1.00074E+006	334.26
306.4000	-855424	334.144
306.3000	-822678	334.055
306.2000	-865779	333.928
306.1000	-877456	333.817
306.0000	-872193	333.671
305.9000	-962091	333.564
305.8000	-1.04603E+006	333.486
305.7000	-1.16965E+006	333.376
305.6000	-1.28995E+006	333.3
305.5000	-1.36498E+006	333.218
305.4000	-1.43661E+006	333.169
305.3000	-1.51461E+006	333.082
305.2000	-1.61517E+006	333.023
305.1000	-1.68833E+006	332.943
305.0000	-1.7738E+006	332.828
304.9000	-1.74056E+006	332.751
304.8000	-1.79728E+006	332.643
304.7000	-1.77349E+006	332.552
304.6000	-1.73024E+006	332.426
304.5000	-1.6317E+006	332.323
304.4000	-1.51082E+006	332.24
304.3000	-1.43235E+006	332.133
304.2000	-1.33945E+006	332.07
304.1000	-1.32938E+006	332.001
304.0000	-1.36404E+006	331.96
303.9000	-1.39672E+006	331.881
303.8000	-1.39798E+006	331.806
303.7000	-1.49745E+006	331.753
303.6000	-1.54062E+006	331.655
303.5000	-1.64633E+006	331.586
303.4000	-1.61115E+006	331.501
303.3000	-1.62493E+006	331.388
303.2000	-1.62956E+006	331.282
303.1000	-1.6162E+006	331.198
303.0000	-1.67251E+006	331.151
302.9000	-1.62639E+006	331.07
302.8000	-1.65841E+006	330.998
302.7000	-1.54986E+006	330.945
302.6000	-1.53189E+006	330.868
302.5000	-1.55915E+006	330.826
302.4000	-1.52196E+006	330.776
302.3000	-1.38873E+006	330.686
302.2000	-1.30547E+006	330.597
302.1000	-1.32867E+006	330.508
302.0000	-1.40974E+006	330.45
301.9000	-1.52819E+006	330.364
301.8000	-1.54528E+006	330.289
301.7000	-1.50872E+006	330.235
301.6000	-1.45161E+006	330.155
301.5000	-1.4302E+006	330.116
301.4000	-1.41292E+006	330.069
301.3000	-1.32238E+006	330
301.2000	-1.29405E+006	329.935
301.1000	-1.23998E+006	329.87
301.0000	-1.22237E+006	329.834
300.9000	-1.15763E+006	329.758
300.8000	-1.0359E+006	329.681
300.7000	-994782	329.616
300.6000	-1.10604E+006	329.533
300.5000	-1.19968E+006	329.469
300.4000	-1.2169E+006	329.421
300.3000	-1.20038E+006	329.357
300.2000	-1.22013E+006	329.294
300.1000	-1.32551E+006	329.239
300.0000	-1.51307E+006	329.177
299.9000	-1.66861E+006	329.128
299.8000	-1.68571E+006	329.075
299.7000	-1.67292E+006	329.009
299.6000	-1.68694E+006	328.95
299.5000	-1.64981E+006	328.886
299.4000	-1.69474E+006	328.83
299.3000	-1.55318E+006	328.765
299.2000	-1.46262E+006	328.714
299.1000	-1.37447E+006	328.675
299.0000	-1.3309E+006	328.616
298.9000	-1.42974E+006	328.565
298.8000	-1.43355E+006	328.525
298.7000	-1.51162E+006	328.474
298.6000	-1.42791E+006	328.433
298.5000	-1.49741E+006	328.384
298.4000	-1.54361E+006	328.327
298.3000	-1.57522E+006	328.274
298.2000	-1.64052E+006	328.211
298.1000	-1.59319E+006	328.152
298.0000	-1.52778E+006	328.101
297.9000	-1.57887E+006	328.052
297.8000	-1.6671E+006	327.98
297.7000	-1.70791E+006	327.929
297.6000	-1.62685E+006	327.887
297.5000	-1.57583E+006	327.825
297.4000	-1.50359E+006	327.788
297.3000	-1.5029E+006	327.75
297.2000	-1.50764E+006	327.693
297.1000	-1.39721E+006	327.65
297.0000	-1.25346E+006	327.606
296.9000	-993942	327.548
296.8000	-958035	327.503
296.7000	-1.10419E+006	327.46
296.6000	-1.22706E+006	327.426
296.5000	-1.29928E+006	327.385
296.4000	-1.37443E+006	327.347
296.3000	-1.49243E+006	327.314
296.2000	-1.60003E+006	327.276
296.1000	-1.80366E+006	327.238
296.0000	-2.03834E+006	327.206
295.9000	-2.0008E+006	327.163
295.8000	-1.90037E+006	327.102
295.7000	-1.88267E+006	327.056
295.6000	-1.95454E+006	327.013
295.5000	-1.9584E+006	326.952
295.4000	-1.94878E+006	326.885
295.3000	-1.87723E+006	326.846
295.2000	-1.7182E+006	326.789
295.1000	-1.62969E+006	326.726
295.0000	-1.67179E+006	326.692
294.9000	-1.70839E+006	326.641
294.8000	-1.6863E+006	326.582
294.7000	-1.73706E+006	326.545
294.6000	-1.72455E+006	326.51
294.5000	-1.84137E+006	326.458
294.4000	-1.95154E+006	326.424
294.3000	-2.05992E+006	326.394
294.2000	-2.20502E+006	326.342
294.1000	-2.2084E+006	326.309
294.0000	-2.12431E+006	326.282
293.9000	-2.07171E+006	326.237
293.8000	-2.08664E+006	326.207
293.7000	-1.95776E+006	326.184
293.6000	-1.86103E+006	326.136
293.5000	-1.86692E+006	326.076
293.4000	-1.7129E+006	326.046
293.3000	-1.68177E+006	326
293.2000	-1.64936E+006	325.947
293.1000	-1.64252E+006	325.922
293.0000	-1.54748E+006	325.88
292.9000	-1.45535E+006	325.828
292.8000	-1.40643E+006	325.803
292.7000	-1.39615E+006	325.781
292.6000	-1.43912E+006	325.742
292.5000	-1.40622E+006	325.693
292.4000	-1.35755E+006	325.664
292.3000	-1.24E+006	325.62
292.2000	-1.18287E+006	325.571
292.1000	-1.20413E+006	325.548
292.0000	-1.2235E+006	325.506
291.9000	-1.25278E+006	325.457
291.8000	-1.38307E+006	325.406
291.7000	-1.49129E+006	325.383
291.6000	-1.56946E+006	325.34
291.5000	-1.64713E+006	325.29
291.4000	-1.59897E+006	325.263
291.3000	-1.62509E+006	325.213
291.2000	-1.67211E+006	325.143
291.1000	-1.6251E+006	325.078
291.0000	-1.52851E+006	325.033
290.9000	-1.41045E+006	324.962
290.8000	-1.33665E+006	324.875
290.7000	-1.28749E+006	324.779
290.6000	-1.30495E+006	324.674
290.5000	-1.36789E+006	324.548
290.4000	-1.30031E+006	324.421
290.3000	-1.29984E+006	324.307
290.2000	-1.35596E+006	324.173
290.1000	-1.38672E+006	324.031
290.0000	-1.40407E+006	323.906
289.9000	-1.36926E+006	323.825
289.8000	-1.39043E+006	323.75
289.7000	-1.39253E+006	323.698
289.6000	-1.42044E+006	323.681
289.5000	-1.45065E+006	323.703
289.4000	-1.43758E+006	323.748
289.3000	-1.39611E+006	323.819
289.2000	-1.44688E+006	323.908
289.1000	-1.61313E+006	324.009
289.0000	-1.71776E+006	324.102
288.9000	-1.68891E+006	324.199
288.8000	-1.66878E+006	324.283
288.7000	-1.64223E+006	324.358
288.6000	-1.62695E+006	324.409
288.5000	-1.57626E+006	324.448
288.4000	-1.43625E+006	324.472
288.3000	-1.25022E+006	324.488
288.2000	-1.09194E+006	324.489
288.1000	-1.05295E+006	324.476
288.0000	-1.1273E+006	324.453
287.9000	-1.2024E+006	324.416
287.8000	-1.29467E+006	324.392
287.7000	-1.35978E+006	324.366
287.6000	-1.49386E+006	324.341
287.5000	-1.64689E+006	324.302
287.4000	-1.82779E+006	324.277
287.3000	-1.95711E+006	324.257
287.2000	-1.94774E+006	324.242
287.1000	-1.93347E+006	324.227
287.0000	-1.96868E+006	324.191
286.9000	-1.96882E+006	324.171
286.8000	-1.9739E+006	324.159
286.7000	-1.90735E+006	324.147
286.6000	-1.8218E+006	324.124
286.5000	-1.69341E+006	324.118
286.4000	-1.64396E+006	324.116
286.3000	-1.64853E+006	324.113
286.2000	-1.56406E+006	324.114
286.1000	-1.45637E+006	324.103
286.0000	-1.33736E+006	324.101
285.9000	-1.27928E+006	324.097
285.8000	-1.27629E+006	324.09
285.7000	-1.33388E+006	324.066
285.6000	-1.43263E+006	324.035
285.5000	-1.47329E+006	324.029
285.4000	-1.57293E+006	324.025
285.3000	-1.61642E+006	324.023
285.2000	-1.72232E+006	324.003
285.1000	-1.76824E+006	323.98
285.0000	-1.79434E+006	323.981
284.9000	-1.76794E+006	323.981
284.8000	-1.73763E+006	323.984
284.7000	-1.74373E+006	323.966
284.6000	-1.71057E+006	323.948
284.5000	-1.72342E+006	323.951
284.4000	-1.6956E+006	323.957
284.3000	-1.69445E+006	323.965
284.2000	-1.76595E+006	323.952
284.1000	-1.79773E+006	323.935
284.0000	-1.80309E+006	323.919
283.9000	-1.77859E+006	323.921
283.8000	-1.79711E+006	323.929
283.7000	-1.80916E+006	323.919
283.6000	-1.84506E+006	323.907
283.5000	-1.94084E+006	323.896
283.4000	-1.93845E+006	323.885
283.3000	-1.96294E+006	323.899
283.2000	-1.97423E+006	323.914
283.1000	-1.97492E+006	323.918
283.0000	-1.95317E+006	323.911
282.9000	-1.9629E+006	323.905
282.8000	-1.86159E+006	323.902
282.7000	-1.79037E+006	323.915
282.6000	-1.79286E+006	323.933
282.5000	-1.77926E+006	323.937
282.4000	-1.7706E+006	323.935
282.3000	-1.82629E+006	323.931
282.2000	-1.82113E+006	323.93
282.1000	-1.77661E+006	323.949
282.0000	-1.8205E+006	323.963
281.9000	-1.78595E+006	323.97
281.8000	-1.7231E+006	323.97
281.7000	-1.65952E+006	323.967
281.6000	-1.65509E+006	323.968
281.5000	-1.58969E+006	323.968
281.4000	-1.52842E+006	323.99
281.3000	-1.43645E+006	323.998
281.2000	-1.25941E+006	323.998
281.1000	-1.30586E+006	323.993
281.0000	-1.4139E+006	323.987
280.9000	-1.4962E+006	323.981
280.8000	-1.50081E+006	323.972
280.7000	-1.48507E+006	323.969
280.6000	-1.49007E+006	323.969
280.5000	-1.4319E+006	323.962
280.4000	-1.5526E+006	323.953
280.3000	-1.58656E+006	323.945
280.2000	-1.56893E+006	323.934
280.1000	-1.51905E+006	323.925
280.0000	-1.52798E+006	323.918
279.9000	-1.48857E+006	323.912
279.8000	-1.44776E+006	323.895
279.7000	-1.49031E+006	323.891
279.6000	-1.50777E+006	323.887
279.5000	-1.53154E+006	323.886
279.4000	-1.50005E+006	323.887
279.3000	-1.51568E+006	323.884
279.2000	-1.45401E+006	323.885
279.1000	-1.3621E+006	323.887
279.0000	-1.40467E+006	323.886
278.9000	-1.38973E+006	323.878
278.8000	-1.42215E+006	323.882
278.7000	-1.37532E+006	323.889
278.6000	-1.41051E+006	323.9
278.5000	-1.3879E+006	323.916
278.4000	-1.41399E+006	323.93
278.3000	-1.57911E+006	323.943
278.2000	-1.54557E+006	323.961
278.1000	-1.5589E+006	323.98
278.0000	-1.63302E+006	323.984
277.9000	-1.60243E+006	323.984
277.8000	-1.55498E+006	323.983
277.7000	-1.52333E+006	323.977
277.6000	-1.44059E+006	323.991
277.5000	-1.27147E+006	324
277.4000	-1.24667E+006	324.008
277.3000	-1.15512E+006	324.019
277.2000	-1.02009E+006	324.029
277.1000	-978356	324.038
277.0000	-974423	324.045
276.9000	-978103	324.057
276.8000	-981866	324.056
276.7000	-971845	324.055
276.6000	-1.01056E+006	324.055
276.5000	-1.06214E+006	324.056
276.4000	-1.07831E+006	324.061
276.3000	-1.12399E+006	324.067
276.2000	-1.15026E+006	324.071
276.1000	-1.2229E+006	324.076
276.0000	-1.28179E+006	324.101
275.9000	-1.37427E+006	324.125
275.8000	-1.40504E+006	324.145
275.7000	-1.41676E+006	324.167
275.6000	-1.51576E+006	324.188
275.5000	-1.60588E+006	324.204
275.4000	-1.48604E+006	324.225
275.3000	-1.32255E+006	324.252
275.2000	-1.17554E+006	324.265
275.1000	-1.04609E+006	324.273
275.0000	-923557	324.287
274.9000	-930392	324.302
274.8000	-942410	324.31
274.7000	-874373	324.319
274.6000	-885089	324.331
274.5000	-958254	324.343
274.4000	-1.07987E+006	324.35
274.3000	-1.1365E+006	324.359
274.2000	-1.1958E+006	324.364
274.1000	-1.30781E+006	324.369
274.0000	-1.23073E+006	324.373
273.9000	-1.17708E+006	324.38
273.8000	-1.1752E+006	324.386
273.7000	-1.25584E+006	324.388
273.6000	-1.26754E+006	324.39
273.5000	-1.28069E+006	324.395
273.4000	-1.34693E+006	324.401
273.3000	-1.38671E+006	324.408
273.2000	-1.34282E+006	324.418
273.1000	-1.35096E+006	324.427
273.0000	-1.37105E+006	324.438
272.9000	-1.32926E+006	324.453
272.8000	-1.2235E+006	324.469
272.7000	-1.19933E+006	324.483
272.6000	-1.13859E+006	324.5
272.5000	-1.11815E+006	324.517
272.4000	-1.08261E+006	324.535
272.3000	-1.04057E+006	324.557
272.2000	-968506	324.578
272.1000	-998893	324.594
272.0000	-1.07678E+006	324.613
271.9000	-1.08222E+006	324.638
271.8000	-1.04878E+006	324.66
271.7000	-896813	324.683
271.6000	-865368	324.708
271.5000	-962120	324.728
271.4000	-1.05909E+006	324.745
271.3000	-1.12271E+006	324.76
271.2000	-1.19671E+006	324.774
271.1000	-1.26942E+006	324.785
271.0000	-1.3578E+006	324.79
270.9000	-1.50128E+006	324.778
270.8000	-1.58217E+006	324.764
270.7000	-1.53347E+006	324.75
270.6000	-1.48051E+006	324.738
270.5000	-1.43771E+006	324.728
270.4000	-1.34672E+006	324.721
270.3000	-1.31445E+006	324.712
270.2000	-1.2673E+006	324.708
270.1000	-1.282E+006	324.717
270.0000	-1.28529E+006	324.728
269.9000	-1.29104E+006	324.743
269.8000	-1.29466E+006	324.761
269.7000	-1.28504E+006	324.783
269.6000	-1.20042E+006	324.811
269.5000	-1.18497E+006	324.834
269.4000	-1.13054E+006	324.843
269.3000	-1.02885E+006	324.856
269.2000	-957946	324.876
269.1000	-963963	324.896
269.0000	-909980	324.916
268.9000	-974074	324.938
268.8000	-1.05881E+006	324.948
268.7000	-1.11366E+006	324.967
268.6000	-1.175E+006	324.998
268.5000	-1.23323E+006	325.036
268.4000	-1.2876E+006	325.073
268.3000	-1.2849E+006	325.099
268.2000	-1.29992E+006	325.127
268.1000	-1.24966E+006	325.151
268.0000	-1.22241E+006	325.188
267.9000	-1.1979E+006	325.225
267.8000	-1.12972E+006	325.268
267.7000	-1.13623E+006	325.31
267.6000	-1.12948E+006	325.357
267.5000	-1.10682E+006	325.406
267.4000	-1.22373E+006	325.439
267.3000	-1.30455E+006	325.476
267.2000	-1.33866E+006	325.506
267.1000	-1.3139E+006	325.542
267.0000	-1.32094E+006	325.576
266.9000	-1.32587E+006	325.616
266.8000	-1.20569E+006	325.651
266.7000	-1.30115E+006	325.672
266.6000	-1.21699E+006	325.716
266.5000	-1.07491E+006	325.763
266.4000	-1.01135E+006	325.82
266.3000	-998236	325.872
266.2000	-1.05224E+006	325.923
266.1000	-975259	325.967
266.0000	-963034	326.002
265.9000	-889270	326.053
265.8000	-811746	326.103
265.7000	-900880	326.151
265.6000	-962794	326.197
265.5000	-1.01438E+006	326.245
265.4000	-1.02557E+006	326.283
265.3000	-1.00928E+006	326.313
265.2000	-1.04316E+006	326.365
265.1000	-1.13218E+006	326.418
265.0000	-1.2481E+006	326.473
264.9000	-1.31054E+006	326.535
264.8000	-1.27149E+006	326.585
264.7000	-1.25305E+006	326.642
264.6000	-1.28489E+006	326.708
264.5000	-1.41082E+006	326.786
264.4000	-1.53869E+006	326.861
264.3000	-1.63937E+006	326.919
264.2000	-1.61335E+006	326.988
264.1000	-1.51314E+006	327.058
264.0000	-1.49247E+006	327.134
263.9000	-1.5258E+006	327.204
263.8000	-1.45306E+006	327.261
263.7000	-1.44738E+006	327.322
263.6000	-1.39861E+006	327.385
263.5000	-1.3722E+006	327.453
263.4000	-1.28539E+006	327.525
263.3000	-1.2472E+006	327.579
263.2000	-1.14586E+006	327.644
263.1000	-1.02387E+006	327.717
263.0000	-1.01098E+006	327.798
262.9000	-884854	327.873
262.8000	-746239	327.947
262.7000	-634808	328.028
262.6000	-569117	328.105
262.5000	-520541	328.19
262.4000	-518502	328.261
262.3000	-544532	328.329
262.2000	-577956	328.401
262.1000	-595774	328.482
262.0000	-668015	328.545
261.9000	-730353	328.603
261.8000	-752594	328.663
261.7000	-766397	328.712
261.6000	-843232	328.772
261.5000	-929406	328.836
261.4000	-945360	328.905
261.3000	-904929	328.965
261.2000	-900943	329.038
261.1000	-926524	329.12
261.0000	-987362	329.203
260.9000	-1.17425E+006	329.278
260.8000	-1.24587E+006	329.358
260.7000	-1.34458E+006	329.439
260.6000	-1.37671E+006	329.507
260.5000	-1.3539E+006	329.582
260.4000	-1.35364E+006	329.663
260.3000	-1.43657E+006	329.739
260.2000	-1.408E+006	329.802
260.1000	-1.25962E+006	329.877
260.0000	-1.18718E+006	329.966
259.9000	-1.11791E+006	330.048
259.8000	-1.13859E+006	330.137
259.7000	-1.19144E+006	330.222
259.6000	-1.19424E+006	330.291
259.5000	-1.18065E+006	330.362
259.4000	-1.17951E+006	330.446
259.3000	-1.26973E+006	330.524
259.2000	-1.28872E+006	330.598
259.1000	-1.21704E+006	330.67
259.0000	-1.09213E+006	330.732
258.9000	-1.04776E+006	330.797
258.8000	-1.12594E+006	330.869
258.7000	-1.20481E+006	330.936
258.6000	-1.18631E+006	331.01
258.5000	-1.10621E+006	331.094
258.4000	-1.10687E+006	331.164
258.3000	-1.16185E+006	331.241
258.2000	-1.23685E+006	331.334
258.1000	-1.35059E+006	331.418
258.0000	-1.36348E+006	331.514
257.9000	-1.27513E+006	331.62
257.8000	-1.23439E+006	331.714
257.7000	-1.17028E+006	331.81
257.6000	-1.1295E+006	331.921
257.5000	-1.1392E+006	332.023
257.4000	-1.1269E+006	332.113
257.3000	-1.10059E+006	332.194
257.2000	-1.008E+006	332.278
257.1000	-967006	332.358
257.0000	-1.02912E+006	332.441
256.9000	-1.12873E+006	332.526
256.8000	-1.13877E+006	332.594
256.7000	-1.13901E+006	332.668
256.6000	-1.20428E+006	332.746
256.5000	-1.21168E+006	332.829
256.4000	-1.18236E+006	332.915
256.3000	-1.04133E+006	332.99
256.2000	-931048	333.069
256.1000	-776597	333.151
256.0000	-735255	333.231
255.9000	-841911	333.311
255.8000	-761799	333.383
255.7000	-650013	333.459
255.6000	-572056	333.539
255.5000	-709993	333.618
255.4000	-785302	333.705
255.3000	-776412	333.775
255.2000	-701192	333.846
255.1000	-582815	333.917
255.0000	-480698	334.002
254.9000	-518229	334.083
254.8000	-578308	334.176
254.7000	-600934	334.282
254.6000	-541019	334.376
254.5000	-581304	334.473
254.4000	-690737	334.561
254.3000	-793170	334.652
254.2000	-844391	334.734
254.1000	-790079	334.832
254.0000	-771682	334.917
253.9000	-710061	334.997
253.8000	-683269	335.061
253.7000	-650657	335.13
253.6000	-650106	335.199
253.5000	-793739	335.271
253.4000	-857946	335.348
253.3000	-913236	335.426
253.2000	-1.03193E+006	335.5
253.1000	-1.07766E+006	335.579
253.0000	-1.12603E+006	335.652
252.9000	-1.17756E+006	335.737
252.8000	-1.21203E+006	335.819
252.7000	-1.09671E+006	335.909
252.6000	-934365	335.997
252.5000	-838430	336.085
252.4000	-709507	336.175
252.3000	-585362	336.262
252.2000	-591846	336.346
252.1000	-526914	336.435
252.0000	-462861	336.52
251.9000	-467889	336.602
251.8000	-432899	336.687
251.7000	-344853	336.773
251.6000	-290304	336.867
251.5000	-313450	336.958
251.4000	-263592	337.055
251.3000	-345876	337.145
251.2000	-402045	337.227
251.1000	-358390	337.32
251.0000	-310028	337.415
250.9000	-523769	337.513
250.8000	-699551	337.6
250.7000	-857704	337.693
250.6000	-1.01386E+006	337.779
250.5000	-1.04231E+006	337.864
250.4000	-1.0562E+006	337.96
250.3000	-1.06648E+006	338.055
250.2000	-1.16284E+006	338.159
250.1000	-1.21176E+006	338.252
250.0000	-1.22836E+006	338.333
249.9000	-1.22409E+006	338.413
249.8000	-1.12608E+006	338.489
249.7000	-1.0017E+006	338.583
249.6000	-963603	338.673
249.5000	-902368	338.761
249.4000	-931930	338.845
249.3000	-945189	338.922
249.2000	-925160	339.001
249.1000	-801420	339.09
249.0000	-756014	339.173
248.9000	-849342	339.248
248.8000	-994237	339.33
248.7000	-1.13918E+006	339.414
248.6000	-1.18942E+006	339.493
248.5000	-1.18342E+006	339.58
248.4000	-1.11308E+006	339.673
248.3000	-1.09938E+006	339.756
248.2000	-1.10124E+006	339.849
248.1000	-1.05355E+006	339.953
248.0000	-952639	340.049
247.9000	-924611	340.15
247.8000	-844210	340.252
247.7000	-909722	340.347
247.6000	-861409	340.449
247.5000	-849005	340.555
247.4000	-866566	340.653
247.3000	-913942	340.735
247.2000	-1.00504E+006	340.82
247.1000	-949340	340.903
247.0000	-943687	340.988
246.9000	-920192	341.079
246.8000	-933285	341.16
246.7000	-1.12164E+006	341.235
246.6000	-1.28778E+006	341.304
246.5000	-1.32416E+006	341.386
246.4000	-1.3389E+006	341.467
246.3000	-1.38453E+006	341.55
246.2000	-1.43835E+006	341.633
246.1000	-1.52408E+006	341.724
246.0000	-1.62156E+006	341.816
245.9000	-1.64179E+006	341.912
245.8000	-1.58179E+006	342.02
245.7000	-1.53447E+006	342.142
245.6000	-1.47977E+006	342.269
245.5000	-1.36725E+006	342.398
245.4000	-1.23902E+006	342.524
245.3000	-1.1272E+006	342.64
245.2000	-869424	342.767
245.1000	-680521	342.89
245.0000	-481576	343.008
244.9000	-388323	343.117
244.8000	-381739	343.218
244.7000	-460197	343.324
244.6000	-505484	343.434
244.5000	-481874	343.542
244.4000	-494551	343.643
244.3000	-586226	343.744
244.2000	-743542	343.844
244.1000	-911162	343.945
244.0000	-1.09856E+006	344.046
243.9000	-1.14614E+006	344.156
243.8000	-1.26106E+006	344.27
243.7000	-1.362E+006	344.388
243.6000	-1.54613E+006	344.501
243.5000	-1.6163E+006	344.619
243.4000	-1.65919E+006	344.75
243.3000	-1.74885E+006	344.879
243.2000	-1.70826E+006	345.012
243.1000	-1.61181E+006	345.143
243.0000	-1.43251E+006	345.264
242.9000	-1.36158E+006	345.383
242.8000	-1.32097E+006	345.505
242.7000	-1.35593E+006	345.63
242.6000	-1.30472E+006	345.757
242.5000	-1.10219E+006	345.894
242.4000	-1.00313E+006	346.036
242.3000	-974600	346.17
242.2000	-934390	346.304
242.1000	-932256	346.439
242.0000	-894313	346.576
241.9000	-775324	346.716
241.8000	-704941	346.858
241.7000	-782887	346.994
241.6000	-783881	347.126
241.5000	-806519	347.265
241.4000	-994029	347.405
241.3000	-1.11903E+006	347.544
241.2000	-1.09931E+006	347.685
241.1000	-1.10734E+006	347.827
241.0000	-1.12354E+006	347.971
240.9000	-1.09281E+006	348.117
240.8000	-1.05219E+006	348.262
240.7000	-937849	348.41
240.6000	-816122	348.559
240.5000	-700579	348.71
240.4000	-768071	348.866
240.3000	-767177	349.028
240.2000	-801459	349.189
240.1000	-818320	349.347
240.0000	-805949	349.504
239.9000	-761477	349.664
239.8000	-671229	349.827
239.7000	-659823	349.996
239.6000	-524302	350.173
239.5000	-469852	350.357
239.4000	-408812	350.547
239.3000	-358354	350.739
239.2000	-338557	350.93
239.1000	-370011	351.119
239.0000	-557579	351.307
238.9000	-684028	351.497
238.8000	-635182	351.69
238.7000	-626354	351.878
238.6000	-557361	352.055
238.5000	-515405	352.221
238.4000	-568067	352.389
238.3000	-601871	352.567
238.2000	-591297	352.748
238.1000	-604190	352.931
238.0000	-728231	353.11
237.9000	-864764	353.288
237.8000	-937647	353.462
237.7000	-990701	353.644
237.6000	-912773	353.842
237.5000	-848716	354.041
237.4000	-812577	354.235
237.3000	-782361	354.429
237.2000	-795413	354.624
237.1000	-671157	354.817
237.0000	-651712	355.017
236.9000	-743000	355.225
236.8000	-774057	355.432
236.7000	-752370	355.64
236.6000	-840176	355.843
236.5000	-989720	356.042
236.4000	-1.09572E+006	356.243
236.3000	-1.04948E+006	356.449
236.2000	-1.1043E+006	356.657
236.1000	-1.16382E+006	356.861
236.0000	-1.20209E+006	357.07
235.9000	-1.28953E+006	357.276
235.8000	-1.28302E+006	357.484
235.7000	-1.15889E+006	357.694
235.6000	-993367	357.906
235.5000	-985524	358.119
235.4000	-950014	358.336
235.3000	-928939	358.549
235.2000	-947067	358.761
235.1000	-926734	358.97
235.0000	-931809	359.181
234.9000	-873988	359.393
234.8000	-729944	359.615
234.7000	-723915	359.837
234.6000	-771233	360.049
234.5000	-741942	360.272
234.4000	-615675	360.497
234.3000	-503047	360.719
234.2000	-533617	360.936
234.1000	-579106	361.156
234.0000	-648880	361.369
233.9000	-640217	361.582
233.8000	-575539	361.804
233.7000	-591466	362.018
233.6000	-756102	362.233
233.5000	-869990	362.456
233.4000	-848292	362.685
233.3000	-653799	362.922
233.2000	-666032	363.159
233.1000	-718565	363.389
233.0000	-664428	363.618
232.9000	-532759	363.849
232.8000	-473262	364.082
232.7000	-344607	364.315
232.6000	-254508	364.546
232.5000	-356347	364.774
232.4000	-457071	364.999
232.3000	-428260	365.238
232.2000	-420714	365.475
232.1000	-473947	365.709
232.0000	-389842	365.94
231.9000	-545875	366.166
231.8000	-807191	366.383
231.7000	-1.01554E+006	366.607
231.6000	-1.07365E+006	366.839
231.5000	-1.04294E+006	367.062
231.4000	-1.19422E+006	367.286
231.3000	-1.30648E+006	367.511
231.2000	-1.3052E+006	367.743
231.1000	-1.28618E+006	367.975
231.0000	-1.18991E+006	368.209
230.9000	-1.09357E+006	368.446
230.8000	-1.16908E+006	368.672
230.7000	-1.10831E+006	368.91
230.6000	-1.05322E+006	369.144
230.5000	-971503	369.388
230.4000	-985279	369.627
230.3000	-1.04491E+006	369.867
230.2000	-1.05106E+006	370.106
230.1000	-1.00136E+006	370.348
230.0000	-809768	370.59
229.9000	-812463	370.82
229.8000	-771697	371.057
229.7000	-745458	371.285
229.6000	-836552	371.507
229.5000	-974280	371.718
229.4000	-1.01874E+006	371.925
229.3000	-1.09656E+006	372.133
229.2000	-1.10742E+006	372.333
229.1000	-1.14552E+006	372.529
229.0000	-1.22915E+006	372.725
228.9000	-1.22953E+006	372.923
228.8000	-1.11672E+006	373.127
228.7000	-1.00559E+006	373.345
228.6000	-910008	373.578
228.5000	-735389	373.813
228.4000	-759290	374.06
228.3000	-819084	374.314
228.2000	-877848	374.567
228.1000	-1.15048E+006	374.826
228.0000	-1.31257E+006	375.086
227.9000	-1.40546E+006	375.346
227.8000	-1.50935E+006	375.599
227.7000	-1.74527E+006	375.852
227.6000	-1.89733E+006	376.097
227.5000	-1.89799E+006	376.339
227.4000	-1.85042E+006	376.584
227.3000	-1.6845E+006	376.833
227.2000	-1.53471E+006	377.076
227.1000	-1.55199E+006	377.311
227.0000	-1.34761E+006	377.545
226.9000	-1.22916E+006	377.771
226.8000	-1.09885E+006	378.004
226.7000	-1.03426E+006	378.238
226.6000	-986044	378.465
226.5000	-936203	378.691
226.4000	-915930	378.91
226.3000	-901665	379.128
226.2000	-982159	379.354
226.1000	-1.01127E+006	379.58
226.0000	-881656	379.805
225.9000	-954146	380.022
225.8000	-932640	380.242
225.7000	-951595	380.462
225.6000	-1.00526E+006	380.68
225.5000	-1.07516E+006	380.902
225.4000	-1.1354E+006	381.119
225.3000	-938890	381.345
225.2000	-898064	381.569
225.1000	-684204	381.798
225.0000	-691907	382.026
224.9000	-739448	382.251
224.8000	-729638	382.475
224.7000	-687443	382.7
224.6000	-544616	382.924
224.5000	-532431	383.14
224.4000	-655721	383.353
224.3000	-834263	383.567
224.2000	-961778	383.776
224.1000	-1.01989E+006	383.989
224.0000	-1.05622E+006	384.204
223.9000	-971447	384.422
223.8000	-870867	384.644
223.7000	-838531	384.866
223.6000	-758128	385.085
223.5000	-679891	385.302
223.4000	-648196	385.518
223.3000	-614614	385.722
223.2000	-693116	385.927
223.1000	-706013	386.131
223.0000	-895581	386.328
222.9000	-1.06168E+006	386.523
222.8000	-1.32094E+006	386.718
222.7000	-1.57537E+006	386.915
222.6000	-1.63454E+006	387.114
222.5000	-1.56149E+006	387.326
222.4000	-1.36856E+006	387.533
222.3000	-1.23759E+006	387.741
222.2000	-1.32323E+006	387.944
222.1000	-1.46448E+006	388.146
222.0000	-1.46653E+006	388.352
221.9000	-1.36513E+006	388.547
221.8000	-1.30067E+006	388.742
221.7000	-1.25439E+006	388.936
221.6000	-1.25957E+006	389.133
221.5000	-1.31006E+006	389.333
221.4000	-1.23474E+006	389.526
221.3000	-1.00946E+006	389.721
221.2000	-800995	389.917
221.1000	-662499	390.118
221.0000	-437295	390.321
220.9000	-432082	390.515
220.8000	-384017	390.71
220.7000	-420447	390.896
220.6000	-357458	391.086
220.5000	-111382	391.285
220.4000	30329.4	391.475
220.3000	36540.8	391.663
220.2000	4864.71	391.85
220.1000	-155285	392.032
220.0000	-190164	392.216
219.9000	-111295	392.406
219.8000	-98153.1	392.591
219.7000	-203207	392.773
219.6000	-423670	392.951
219.5000	-786011	393.13
219.4000	-838186	393.314
219.3000	-826456	393.496
219.2000	-774687	393.684
219.1000	-844371	393.861
219.0000	-972558	394.042
218.9000	-810418	394.23
218.8000	-696756	394.418
218.7000	-272289	394.605
218.6000	43204.1	394.789
218.5000	94973.2	394.965
218.4000	154611	395.145
218.3000	199576	395.321
218.2000	224605	395.502
218.1000	198213	395.673
218.0000	-26371.1	395.843
217.9000	-253077	396.013
217.8000	-382814	396.176
217.7000	-538170	396.348
217.6000	-449237	396.518
217.5000	-494069	396.693
217.4000	-386474	396.863
217.3000	-417022	397.028
217.2000	-598685	397.198
217.1000	-611422	397.369
217.0000	-580747	397.546
216.9000	-741406	397.717
216.8000	-996722	397.886
216.7000	-1.01724E+006	398.054
216.6000	-945899	398.228
216.5000	-916006	398.404
216.4000	-861494	398.575
216.3000	-857539	398.74
216.2000	-1.12754E+006	398.907
216.1000	-1.21982E+006	399.079
216.0000	-999534	399.255
215.9000	-856494	399.428
215.8000	-1.03502E+006	399.592
215.7000	-1.19547E+006	399.758
215.6000	-1.21126E+006	399.933
215.5000	-1.18791E+006	400.109
215.4000	-1.11885E+006	400.283
215.3000	-951373	400.453
215.2000	-883026	400.622
215.1000	-1.08957E+006	400.794
215.0000	-1.20176E+006	400.971
214.9000	-1.32493E+006	401.144
214.8000	-1.38762E+006	401.314
214.7000	-1.29155E+006	401.487
214.6000	-1.2285E+006	401.658
214.5000	-1.30854E+006	401.829
214.4000	-1.366E+006	402.002
214.3000	-1.38116E+006	402.172
214.2000	-1.17345E+006	402.346
214.1000	-870785	402.524
214.0000	-724471	402.699
213.9000	-469746	402.876
213.8000	-506580	403.05
213.7000	-410201	403.229
213.6000	-234483	403.41
213.5000	-33896.3	403.594
213.4000	11460.7	403.774
213.3000	-41509.9	403.958
213.2000	-24498.6	404.145
213.1000	-136312	404.332
213.0000	-176484	404.522
212.9000	-32745.2	404.717
212.8000	134418	404.907
212.7000	-12538.7	405.09
212.6000	-195306	405.271
212.5000	-551429	405.45
212.4000	-682920	405.63
212.3000	-980499	405.804
212.2000	-1.12459E+006	405.981
212.1000	-1.18544E+006	406.162
212.0000	-1.59002E+006	406.342
211.9000	-1.90929E+006	406.529
211.8000	-1.91173E+006	406.719
211.7000	-1.81238E+006	406.916
211.6000	-1.81523E+006	407.116
211.5000	-1.77227E+006	407.316
211.4000	-1.59065E+006	407.523
211.3000	-1.68097E+006	407.726
211.2000	-1.65508E+006	407.929
211.1000	-1.62742E+006	408.131
211.0000	-1.72975E+006	408.337
210.9000	-1.82785E+006	408.542
210.8000	-1.51024E+006	408.753
210.7000	-1.23151E+006	408.971
210.6000	-1.14029E+006	409.179
210.5000	-993978	409.391
210.4000	-785218	409.604
210.3000	-486525	409.825
210.2000	-406769	410.035
210.1000	-156443	410.252
210.0000	-289668	410.462
209.9000	-410518	410.671
209.8000	-577392	410.879
209.7000	-688907	411.093
209.6000	-727467	411.308
209.5000	-927919	411.523
209.4000	-1.04193E+006	411.74
209.3000	-1.12671E+006	411.957
209.2000	-1.14416E+006	412.177
209.1000	-1.27641E+006	412.397
209.0000	-1.26337E+006	412.621
208.9000	-1.21413E+006	412.848
208.8000	-1.19338E+006	413.075
208.7000	-959087	413.303
208.6000	-630917	413.541
208.5000	-389789	413.779
208.4000	-379648	414.013
208.3000	-284719	414.251
208.2000	-218952	414.489
208.1000	-233723	414.726
208.0000	-496151	414.953
207.9000	-538030	415.187
207.8000	-867838	415.416
207.7000	-1.07343E+006	415.647
207.6000	-1.00394E+006	415.885
207.5000	-945198	416.117
207.4000	-912816	416.348
207.3000	-705477	416.583
207.2000	-752814	416.813
207.1000	-818520	417.042
207.0000	-819965	417.271
206.9000	-753324	417.504
206.8000	-717326	417.733
206.7000	-676236	417.963
206.6000	-657843	418.194
206.5000	-818115	418.42
206.4000	-661113	418.653
206.3000	-412006	418.892
206.2000	-309084	419.121
206.1000	-254892	419.345
206.0000	-262685	419.57
205.9000	-571447	419.789
205.8000	-586895	420.014
205.7000	-257382	420.249
205.6000	-319043	420.48
205.5000	-510802	420.708
205.4000	-689190	420.936
205.3000	-974086	421.168
205.2000	-1.17617E+006	421.406
205.1000	-1.18241E+006	421.648
205.0000	-1.02348E+006	421.893
204.9000	-1.26807E+006	422.129
204.8000	-1.64012E+006	422.364
204.7000	-1.59387E+006	422.609
204.6000	-1.3902E+006	422.86
204.5000	-1.11133E+006	423.115
204.4000	-768013	423.36
204.3000	-807449	423.602
204.2000	-781694	423.849
204.1000	-580131	424.095
204.0000	-473208	424.342
203.9000	-99143.2	424.59
203.8000	55826.2	424.836
203.7000	156078	425.081
203.6000	219467	425.331
203.5000	529730	425.584
203.4000	858516	425.84
203.3000	895852	426.093
203.2000	1.13298E+006	426.355
203.1000	1.15268E+006	426.614
203.0000	903208	426.867
202.9000	641311	427.122
202.8000	236762	427.373
202.7000	-10505.1	427.63
202.6000	-338098	427.882
202.5000	-626487	428.132
202.4000	-808389	428.383
202.3000	-644097	428.645
202.2000	-745251	428.905
202.1000	-830736	429.162
202.0000	-747746	429.422
201.9000	-632748	429.686
201.8000	-572951	429.954
201.7000	-748094	430.224
201.6000	-907247	430.496
201.5000	-1.18908E+006	430.766
201.4000	-1.43991E+006	431.035
201.3000	-1.25133E+006	431.318
201.2000	-1.16764E+006	431.604
201.1000	-1.14969E+006	431.889
201.0000	-1.04758E+006	432.178
200.9000	-1.00507E+006	432.464
200.8000	-663567	432.758
200.7000	-583149	433.047
200.6000	-555368	433.338
200.5000	-568220	433.634
200.4000	-691401	433.929
200.3000	-720899	434.231
200.2000	-1.02009E+006	434.526
200.1000	-1.32596E+006	434.824
200.0000	-1.65721E+006	435.119
199.9000	-1.66944E+006	435.421
199.8000	-1.82224E+006	435.719
199.7000	-1.70468E+006	436.014
199.6000	-1.86715E+006	436.302
199.5000	-1.72176E+006	436.594
199.4000	-1.47783E+006	436.886
199.3000	-1.03381E+006	437.178
199.2000	-426443	437.477
199.1000	-263539	437.766
199.0000	5149.05	438.061
198.9000	-350156	438.355
198.8000	-395107	438.659
198.7000	-494897	438.968
198.6000	-721172	439.285
198.5000	-909203	439.61
198.4000	-1.23468E+006	439.944
198.3000	-1.2574E+006	440.283
198.2000	-1.36021E+006	440.631
198.1000	-1.13419E+006	440.997
198.0000	-510195	441.388
197.9000	-299341	441.786
197.8000	20990.8	442.194
197.7000	224659	442.613
197.6000	473826	443.035
197.5000	660290	443.459
197.4000	948721	443.881
197.3000	1.02648E+006	444.281
197.2000	539720	444.635
197.1000	-4481.91	444.948
197.0000	-313848	445.239
196.9000	-341129	445.508
196.8000	-304363	445.762
196.7000	-689414	446.002
196.6000	-1.32779E+006	446.235
196.5000	-1.72758E+006	446.481
196.4000	-1.58342E+006	446.767
196.3000	-1.22537E+006	447.096
196.2000	-1.05494E+006	447.462
196.1000	-1.16665E+006	447.861
196.0000	-1.49262E+006	448.296
195.9000	-1.1622E+006	448.791
195.8000	-912823	449.347
195.7000	-610183	449.978
195.6000	-643366	450.693
195.5000	-586718	451.492
195.4000	-479934	452.363
195.3000	-109203	453.292
195.2000	50692.9	454.252
195.1000	199513	455.217
195.0000	479286	456.136
194.9000	470525	456.953
194.8000	503202	457.614
194.7000	593533	458.104
194.6000	742684	458.437
194.5000	626213	458.623
194.4000	520527	458.699
194.3000	443527	458.694
194.2000	282627	458.652
194.1000	260932	458.641
194.0000	467083	458.724
193.9000	601646	458.948
193.8000	692507	459.329
193.7000	559326	459.891
193.6000	677238	460.662
193.5000	680762	461.664
193.4000	588677	462.927
193.3000	547238	464.466
193.2000	661755	466.255
193.1000	680121	468.253
193.0000	484498	470.398
192.9000	485680	472.611
192.8000	472612	474.789
192.7000	248586	476.787
192.6000	68277.8	478.444
192.5000	-60283.1	479.63
192.4000	-398615	480.316
192.3000	-621940	480.535
192.2000	-739120	480.338
192.1000	-806042	479.803
192.0000	-688606	479.039
191.9000	-543616	478.189
191.8000	-422063	477.444
191.7000	-448626	477.002
191.6000	-532763	476.97
191.5000	-541246	477.363
191.4000	-498719	478.21
191.3000	3659.42	479.562
191.2000	-18741.1	481.44
191.1000	-277076	483.823
191.0000	-343783	486.65
190.9000	-510669	489.793
190.8000	-506460	493.115
190.7000	-589440	496.512
190.6000	-968999	499.822
190.5000	-1.54421E+006	502.839
190.4000	-1.92209E+006	505.324
190.3000	-2.20869E+006	507.096
190.2000	-2.05472E+006	508.131
190.1000	-1.99362E+006	508.469
190.0000	-1.53275E+006	508.234

##### Extended Information
[Comments]
Sample name	D2_0.6uM
Comment
User
Division
Company	CSIR-IMTECH

[Detailed Information]
Creation date	3/11/2024 1:20 PM

Data array type	Linear data array * 2
Horizontal axis	Wavelength [nm]
Vertical axis(1)	Mol. Ellip.
Vertical axis(2)	HT [V]
Start	350 nm
End	190 nm
Data interval	0.1 nm
Data points	1601    

[Measurement Information]
Instrument Name	JASCO CD
Model Name	J-815
Serial No.	B063061168

Accessory	PTC-423S
Accessory S/N	C013945-01
  Temperature	36.94 C
  Control Sonsor	Cell
  Monitor Sensor	Cell
  Start Mode	Start immediately
  Cell Length	10 mm

Measurement date	3/11/2024 1:16 PM

Photometric Mode	CD, HT
Measure Range	350 - 190 nm
Data pitch	0.1 nm
Sensitivity	Standard
D.I.T.	1 sec
Bandwidth	1.00 nm
Start Mode	Immediately
Scanning Speed	50 nm/min
Baseline Correction	None
Shutter Control	Manual
CD Detector	PMT
PMT Voltage	Auto
Accumulations	3
Concentration	0.6 umol/L

