TITLE	cal_0.6uM
DATA TYPE	
ORIGIN	JASCO
OWNER	
DATE	24/04/09
TIME	15:28:44
SPECTROMETER/DATA SYSTEM	
LOCALE	1033
RESOLUTION	
DELTAX	-0.1
XUNITS	NANOMETERS
YUNITS	CD [mdeg]
Y2UNITS	HT [V]
FIRSTX	  350.0000
LASTX	  190.0000
NPOINTS	    1601
FIRSTY	     0.50000
MAXY	     2.15884
MINY	    -1.43063
XYDATA
350.0000	0.5	488.125
349.9000	0.556056	487.493
349.8000	0.171296	486.549
349.7000	0.205144	485.604
349.6000	0.423903	484.929
349.5000	0.692136	484.352
349.4000	0.577484	483.458
349.3000	0.397859	482.818
349.2000	0.376564	482.28
349.1000	0.421042	481.424
349.0000	0.684809	480.794
348.9000	0.794103	480.234
348.8000	0.628463	479.356
348.7000	0.327651	478.461
348.6000	0.378973	477.816
348.5000	0.385502	477.251
348.4000	0.382833	476.344
348.3000	0.223573	475.665
348.2000	0.128101	475.074
348.1000	0.211325	474.198
348.0000	0.262203	473.538
347.9000	0.392624	472.964
347.8000	0.37434	472.099
347.7000	0.400769	471.222
347.6000	0.503227	470.605
347.5000	0.688306	470.093
347.4000	0.641483	469.279
347.3000	0.338882	468.661
347.2000	0.150973	468.135
347.1000	0.123915	467.342
347.0000	0.0376824	466.749
346.9000	-0.137498	466.232
346.8000	-0.282418	465.433
346.7000	-0.399888	464.624
346.6000	-0.464885	464.026
346.5000	-0.439563	463.252
346.4000	-0.337104	462.471
346.3000	-0.359164	461.876
346.2000	-0.428293	461.089
346.1000	-0.292722	460.292
346.0000	-0.210175	459.708
345.9000	-0.278234	459.197
345.8000	-0.123994	458.405
345.7000	0.0141483	457.817
345.6000	0.182973	457.305
345.5000	0.335336	456.559
345.4000	0.517349	456.02
345.3000	0.435058	455.554
345.2000	0.57383	454.829
345.1000	0.801617	454.095
345.0000	0.866258	453.555
344.9000	0.868812	452.862
344.8000	0.783283	452.154
344.7000	0.622478	451.605
344.6000	0.3595	450.903
344.5000	0.286586	450.2
344.4000	0.297826	449.683
344.3000	0.293832	448.98
344.2000	0.303239	448.265
344.1000	0.309469	447.721
344.0000	0.350438	447.045
343.9000	0.385516	446.366
343.8000	0.521062	445.869
343.7000	0.600743	445.431
343.6000	0.502344	444.738
343.5000	0.28253	444.234
343.4000	0.120508	443.816
343.3000	0.191997	443.175
343.2000	0.128986	442.686
343.1000	-0.128178	442.253
343.0000	-0.192732	441.612
342.9000	-0.188167	440.964
342.8000	-0.124088	440.488
342.7000	-0.0369626	439.871
342.6000	0.147946	439.247
342.5000	0.131476	438.781
342.4000	0.027378	438.187
342.3000	0.0570456	437.586
342.2000	0.0723181	437.131
342.1000	0.0862448	436.545
342.0000	0.0327795	435.95
341.9000	-0.000475064	435.524
341.8000	0.04461	434.946
341.7000	0.0367675	434.355
341.6000	-0.0107418	433.912
341.5000	-0.124012	433.363
341.4000	-0.0640724	432.815
341.3000	-0.205698	432.398
341.2000	-0.279772	431.805
341.1000	-0.221485	431.202
341.0000	-0.274056	430.759
340.9000	-0.410405	430.197
340.8000	-0.523766	429.629
340.7000	-0.427793	429.184
340.6000	-0.313151	428.617
340.5000	-0.248214	428.039
340.4000	-0.167201	427.635
340.3000	-0.139592	427.109
340.2000	-0.0283001	426.578
340.1000	0.0121891	426.187
340.0000	0.0932585	425.687
339.9000	0.131721	425.183
339.8000	0.0657956	424.803
339.7000	-0.048066	424.324
339.6000	-0.123631	423.839
339.5000	-0.0344308	423.503
339.4000	-0.121204	423.021
339.3000	-0.180641	422.519
339.2000	-0.132407	421.987
339.1000	-0.176866	421.51
339.0000	-0.192432	421.022
338.9000	-0.0686351	420.463
338.8000	0.071737	419.95
338.7000	0.00250229	419.425
338.6000	0.00325451	418.865
338.5000	0.0937823	418.378
338.4000	0.184669	418.01
338.3000	0.260754	417.536
338.2000	0.44316	417.058
338.1000	0.368758	416.707
338.0000	0.210356	416.259
337.9000	0.237531	415.813
337.8000	0.202275	415.498
337.7000	0.0858515	415.092
337.6000	-0.0218923	414.677
337.5000	0.000252706	414.371
337.4000	0.0223611	413.976
337.3000	-0.00735541	413.567
337.2000	0.0569141	413.098
337.1000	-0.00216444	412.671
337.0000	-0.0909976	412.234
336.9000	-0.0608732	411.764
336.8000	-0.091609	411.347
336.7000	-0.168382	410.924
336.6000	-0.227557	410.455
336.5000	-0.24335	410.028
336.4000	-0.297887	409.727
336.3000	-0.286684	409.324
336.2000	-0.29825	408.914
336.1000	-0.329043	408.608
336.0000	-0.284771	408.218
335.9000	-0.23259	407.813
335.8000	-0.288869	407.366
335.7000	-0.381319	406.96
335.6000	-0.274787	406.552
335.5000	-0.221075	406.133
335.4000	-0.221328	405.765
335.3000	-0.173977	405.391
335.2000	-0.300678	404.98
335.1000	-0.322792	404.619
335.0000	-0.352996	404.369
334.9000	-0.259045	404.029
334.8000	-0.386331	403.673
334.7000	-0.506226	403.289
334.6000	-0.406146	402.955
334.5000	-0.344203	402.612
334.4000	-0.247876	402.215
334.3000	-0.19096	401.852
334.2000	-0.214431	401.477
334.1000	-0.35682	401.067
334.0000	-0.381964	400.71
333.9000	-0.38003	400.446
333.8000	-0.504686	400.088
333.7000	-0.641919	399.719
333.6000	-0.724026	399.329
333.5000	-0.718322	398.992
333.4000	-0.666509	398.653
333.3000	-0.587672	398.292
333.2000	-0.469622	397.977
333.1000	-0.256963	397.663
333.0000	-0.170587	397.321
332.9000	-0.123105	397.021
332.8000	-0.0298795	396.675
332.7000	-0.0418745	396.361
332.6000	-0.193606	396.039
332.5000	-0.243535	395.699
332.4000	-0.251009	395.403
332.3000	-0.480975	395.089
332.2000	-0.453714	394.732
332.1000	-0.334841	394.406
332.0000	-0.415612	394.056
331.9000	-0.498418	393.76
331.8000	-0.559907	393.462
331.7000	-0.472864	393.123
331.6000	-0.402244	392.806
331.5000	-0.256829	392.379
331.4000	-0.306973	392.045
331.3000	-0.33874	391.758
331.2000	-0.236492	391.438
331.1000	-0.10714	391.154
331.0000	-0.0782831	390.862
330.9000	-0.141199	390.559
330.8000	-0.216488	390.293
330.7000	-0.238262	389.985
330.6000	-0.236656	389.708
330.5000	-0.270876	389.426
330.4000	-0.336947	389.127
330.3000	-0.309219	388.871
330.2000	-0.219894	388.495
330.1000	-0.195646	388.181
330.0000	-0.123674	387.904
329.9000	-0.134386	387.608
329.8000	-0.142884	387.352
329.7000	-0.280667	386.993
329.6000	-0.27432	386.709
329.5000	-0.322021	386.454
329.4000	-0.329631	386.163
329.3000	-0.2487	385.91
329.2000	-0.166232	385.548
329.1000	-0.232936	385.255
329.0000	-0.254283	384.998
328.9000	-0.235461	384.732
328.8000	-0.414558	384.488
328.7000	-0.587368	384.133
328.6000	-0.658032	383.867
328.5000	-0.772721	383.64
328.4000	-0.855497	383.378
328.3000	-0.772729	383.155
328.2000	-0.769658	382.853
328.1000	-0.712408	382.607
328.0000	-0.596582	382.386
327.9000	-0.341276	382.14
327.8000	-0.256423	381.921
327.7000	-0.251043	381.649
327.6000	-0.282979	381.457
327.5000	-0.375487	381.298
327.4000	-0.429621	381.023
327.3000	-0.482203	380.766
327.2000	-0.422217	380.465
327.1000	-0.474795	380.234
327.0000	-0.624028	380.036
326.9000	-0.704103	379.752
326.8000	-0.653684	379.477
326.7000	-0.636799	379.154
326.6000	-0.669805	378.951
326.5000	-0.666316	378.813
326.4000	-0.716834	378.557
326.3000	-0.754159	378.309
326.2000	-0.691157	378.035
326.1000	-0.583021	377.848
326.0000	-0.58713	377.553
325.9000	-0.516542	377.291
325.8000	-0.437369	377.041
325.7000	-0.296511	376.784
325.6000	-0.245911	376.629
325.5000	-0.217604	376.335
325.4000	-0.240739	376.052
325.3000	-0.230637	375.775
325.2000	-0.160214	375.599
325.1000	-0.148814	375.472
325.0000	-0.23794	375.186
324.9000	-0.355487	374.898
324.8000	-0.45933	374.598
324.7000	-0.460676	374.44
324.6000	-0.479766	374.353
324.5000	-0.536692	374.085
324.4000	-0.580197	373.813
324.3000	-0.673573	373.557
324.2000	-0.736609	373.408
324.1000	-0.700673	373.141
324.0000	-0.719387	372.871
323.9000	-0.706717	372.599
323.8000	-0.710622	372.351
323.7000	-0.650123	372.229
323.6000	-0.553378	371.965
323.5000	-0.449491	371.677
323.4000	-0.380949	371.4
323.3000	-0.329107	371.253
323.2000	-0.230201	371.168
323.1000	-0.109111	370.902
323.0000	-0.084537	370.606
322.9000	-0.0655658	370.313
322.8000	-0.102629	370.162
322.7000	-0.221259	369.903
322.6000	-0.272353	369.619
322.5000	-0.278435	369.34
322.4000	-0.327695	369.057
322.3000	-0.419393	368.887
322.2000	-0.37912	368.606
322.1000	-0.342184	368.3
322.0000	-0.372497	368.003
321.9000	-0.358705	367.836
321.8000	-0.382203	367.55
321.7000	-0.38113	367.248
321.6000	-0.363579	366.931
321.5000	-0.326871	366.641
321.4000	-0.348543	366.489
321.3000	-0.382647	366.266
321.2000	-0.326591	366.035
321.1000	-0.248859	365.804
321.0000	-0.238596	365.719
320.9000	-0.229101	365.557
320.8000	-0.320428	365.396
320.7000	-0.367752	365.25
320.6000	-0.430442	365.103
320.5000	-0.499393	365.061
320.4000	-0.612316	364.9
320.3000	-0.678862	364.729
320.2000	-0.672012	364.566
320.1000	-0.596268	364.514
320.0000	-0.534841	364.358
319.9000	-0.475525	364.178
319.8000	-0.408965	363.983
319.7000	-0.33481	363.782
319.6000	-0.290834	363.554
319.5000	-0.270659	363.38
319.4000	-0.312179	363.188
319.3000	-0.43095	362.968
319.2000	-0.547522	362.855
319.1000	-0.532944	362.654
319.0000	-0.562428	362.439
318.9000	-0.630579	362.221
318.8000	-0.584818	362.107
318.7000	-0.553511	361.891
318.6000	-0.458123	361.665
318.5000	-0.349869	361.467
318.4000	-0.178231	361.268
318.3000	-0.177514	361.037
318.2000	-0.149017	360.862
318.1000	-0.108515	360.687
318.0000	-0.0967469	360.503
317.9000	-0.0805172	360.427
317.8000	-0.17402	360.288
317.7000	-0.218126	360.131
317.6000	-0.364518	359.942
317.5000	-0.470431	359.845
317.4000	-0.55038	359.684
317.3000	-0.630328	359.513
317.2000	-0.650644	359.325
317.1000	-0.754396	359.127
317.0000	-0.738971	358.88
316.9000	-0.653476	358.676
316.8000	-0.547826	358.492
316.7000	-0.420417	358.308
316.6000	-0.389718	358.118
316.5000	-0.328723	357.963
316.4000	-0.266595	357.796
316.3000	-0.176049	357.629
316.2000	-0.153993	357.463
316.1000	-0.233073	357.344
316.0000	-0.354804	357.217
315.9000	-0.438311	357.047
315.8000	-0.411966	356.937
315.7000	-0.321368	356.767
315.6000	-0.370878	356.61
315.5000	-0.419605	356.431
315.4000	-0.470314	356.318
315.3000	-0.37026	356.12
315.2000	-0.27204	355.914
315.1000	-0.203781	355.73
315.0000	-0.17941	355.555
314.9000	-0.231252	355.375
314.8000	-0.272465	355.224
314.7000	-0.268945	355.064
314.6000	-0.242878	354.907
314.5000	-0.280379	354.755
314.4000	-0.357794	354.642
314.3000	-0.406391	354.508
314.2000	-0.428956	354.375
314.1000	-0.445298	354.196
314.0000	-0.494191	354.034
313.9000	-0.483598	353.877
313.8000	-0.475048	353.727
313.7000	-0.431027	353.513
313.6000	-0.381954	353.318
313.5000	-0.450613	353.128
313.4000	-0.431824	352.945
313.3000	-0.45267	352.77
313.2000	-0.387586	352.628
313.1000	-0.358297	352.473
313.0000	-0.384404	352.316
312.9000	-0.467694	352.168
312.8000	-0.49405	352.062
312.7000	-0.457846	351.936
312.6000	-0.532644	351.808
312.5000	-0.603935	351.637
312.4000	-0.62728	351.482
312.3000	-0.642847	351.305
312.2000	-0.675008	351.131
312.1000	-0.578186	350.911
312.0000	-0.512882	350.706
311.9000	-0.515629	350.506
311.8000	-0.477886	350.266
311.7000	-0.453015	350.081
311.6000	-0.472974	349.893
311.5000	-0.464614	349.74
311.4000	-0.462952	349.541
311.3000	-0.480543	349.416
311.2000	-0.586174	349.293
311.1000	-0.592902	349.191
311.0000	-0.670033	349.068
310.9000	-0.700916	348.968
310.8000	-0.713216	348.857
310.7000	-0.774439	348.758
310.6000	-0.767547	348.623
310.5000	-0.817864	348.509
310.4000	-0.807106	348.409
310.3000	-0.83953	348.316
310.2000	-0.781745	348.232
310.1000	-0.684882	348.164
310.0000	-0.671234	348.086
309.9000	-0.71229	348.012
309.8000	-0.730234	347.95
309.7000	-0.714206	347.862
309.6000	-0.617435	347.786
309.5000	-0.606173	347.661
309.4000	-0.610671	347.56
309.3000	-0.663865	347.424
309.2000	-0.699046	347.314
309.1000	-0.614899	347.143
309.0000	-0.605692	347
308.9000	-0.641148	346.873
308.8000	-0.772593	346.76
308.7000	-0.876821	346.651
308.6000	-0.866174	346.563
308.5000	-0.816468	346.464
308.4000	-0.79742	346.346
308.3000	-0.760648	346.278
308.2000	-0.760216	346.171
308.1000	-0.69348	346.09
308.0000	-0.614772	345.983
307.9000	-0.593138	345.893
307.8000	-0.59766	345.759
307.7000	-0.624807	345.652
307.6000	-0.641753	345.531
307.5000	-0.635536	345.368
307.4000	-0.570132	345.251
307.3000	-0.542509	345.126
307.2000	-0.562085	345.029
307.1000	-0.54608	344.9
307.0000	-0.463577	344.808
306.9000	-0.485855	344.706
306.8000	-0.475497	344.639
306.7000	-0.499781	344.568
306.6000	-0.53704	344.474
306.5000	-0.629768	344.391
306.4000	-0.659777	344.268
306.3000	-0.619276	344.179
306.2000	-0.62361	344.06
306.1000	-0.635621	343.956
306.0000	-0.669317	343.814
305.9000	-0.653463	343.711
305.8000	-0.666464	343.633
305.7000	-0.569261	343.525
305.6000	-0.553263	343.444
305.5000	-0.581036	343.363
305.4000	-0.637398	343.31
305.3000	-0.713426	343.219
305.2000	-0.735986	343.155
305.1000	-0.798005	343.075
305.0000	-0.791244	342.955
304.9000	-0.871053	342.872
304.8000	-0.94647	342.761
304.7000	-0.985864	342.665
304.6000	-0.998844	342.535
304.5000	-1.00422	342.427
304.4000	-0.979589	342.341
304.3000	-0.99293	342.226
304.2000	-1.0015	342.16
304.1000	-1.03278	342.095
304.0000	-1.07297	342.057
303.9000	-1.04308	341.978
303.8000	-1.00776	341.902
303.7000	-0.959913	341.855
303.6000	-0.932193	341.754
303.5000	-0.899061	341.685
303.4000	-0.869568	341.597
303.3000	-0.830001	341.486
303.2000	-0.79936	341.378
303.1000	-0.865598	341.289
303.0000	-0.898477	341.237
302.9000	-0.881828	341.146
302.8000	-0.853995	341.071
302.7000	-0.8306	341.015
302.6000	-0.843498	340.93
302.5000	-0.859681	340.882
302.4000	-0.803203	340.825
302.3000	-0.760701	340.732
302.2000	-0.691551	340.642
302.1000	-0.662629	340.549
302.0000	-0.624794	340.489
301.9000	-0.693326	340.397
301.8000	-0.712882	340.319
301.7000	-0.7563	340.256
301.6000	-0.799994	340.165
301.5000	-0.826141	340.115
301.4000	-0.855036	340.062
301.3000	-0.961429	339.982
301.2000	-1.09224	339.909
301.1000	-1.13484	339.843
301.0000	-1.16548	339.807
300.9000	-1.1317	339.729
300.8000	-1.1281	339.651
300.7000	-1.05443	339.591
300.6000	-1.00751	339.51
300.5000	-0.931998	339.446
300.4000	-0.880415	339.397
300.3000	-0.890506	339.319
300.2000	-0.803107	339.248
300.1000	-0.810519	339.193
300.0000	-0.74609	339.132
299.9000	-0.780874	339.079
299.8000	-0.874005	339.022
299.7000	-0.833683	338.955
299.6000	-0.81631	338.895
299.5000	-0.732974	338.834
299.4000	-0.702136	338.785
299.3000	-0.666262	338.714
299.2000	-0.682132	338.66
299.1000	-0.661099	338.619
299.0000	-0.561659	338.559
298.9000	-0.512659	338.513
298.8000	-0.517377	338.475
298.7000	-0.516646	338.423
298.6000	-0.546835	338.376
298.5000	-0.565676	338.329
298.4000	-0.490491	338.271
298.3000	-0.52458	338.214
298.2000	-0.541145	338.153
298.1000	-0.596231	338.09
298.0000	-0.633855	338.036
297.9000	-0.619349	337.984
297.8000	-0.602111	337.914
297.7000	-0.520676	337.86
297.6000	-0.559187	337.814
297.5000	-0.614683	337.746
297.4000	-0.632741	337.698
297.3000	-0.718993	337.655
297.2000	-0.722544	337.587
297.1000	-0.810941	337.534
297.0000	-0.853891	337.486
296.9000	-0.932099	337.415
296.8000	-0.972588	337.361
296.7000	-0.954923	337.32
296.6000	-0.953748	337.29
296.5000	-0.895815	337.246
296.4000	-0.889686	337.214
296.3000	-0.868993	337.191
296.2000	-0.903289	337.147
296.1000	-0.932883	337.112
296.0000	-0.988679	337.085
295.9000	-1.01127	337.038
295.8000	-1.04294	336.97
295.7000	-1.09815	336.925
295.6000	-1.14685	336.877
295.5000	-1.21128	336.808
295.4000	-1.17245	336.736
295.3000	-1.11841	336.693
295.2000	-1.15251	336.636
295.1000	-1.14944	336.57
295.0000	-1.15246	336.533
294.9000	-1.14581	336.485
294.8000	-1.0784	336.42
294.7000	-1.00335	336.38
294.6000	-1.014	336.346
294.5000	-1.05783	336.296
294.4000	-1.10074	336.253
294.3000	-1.11012	336.225
294.2000	-1.1206	336.177
294.1000	-1.04919	336.142
294.0000	-1.01247	336.122
293.9000	-1.04844	336.073
293.8000	-0.995037	336.044
293.7000	-1.00239	336.02
293.6000	-0.945034	335.973
293.5000	-0.893316	335.915
293.4000	-0.889921	335.883
293.3000	-0.876692	335.836
293.2000	-0.892094	335.778
293.1000	-0.90532	335.753
293.0000	-0.928472	335.705
292.9000	-0.914164	335.653
292.8000	-0.869415	335.632
292.7000	-0.880475	335.604
292.6000	-0.868865	335.564
292.5000	-0.87088	335.507
292.4000	-0.859865	335.472
292.3000	-0.82898	335.422
292.2000	-0.767433	335.37
292.1000	-0.710918	335.342
292.0000	-0.822911	335.29
291.9000	-0.863584	335.229
291.8000	-0.888286	335.181
291.7000	-0.886132	335.158
291.6000	-0.893896	335.113
291.5000	-0.932434	335.064
291.4000	-0.980266	335.04
291.3000	-1.00751	334.989
291.2000	-0.98158	334.927
291.1000	-0.898328	334.867
291.0000	-0.880615	334.819
290.9000	-0.936463	334.75
290.8000	-1.01725	334.661
290.7000	-1.07277	334.57
290.6000	-1.10683	334.465
290.5000	-1.12158	334.344
290.4000	-1.14489	334.212
290.3000	-1.16281	334.097
290.2000	-1.13926	333.957
290.1000	-1.13897	333.802
290.0000	-1.10818	333.661
289.9000	-1.04658	333.557
289.8000	-1.0118	333.457
289.7000	-1.0125	333.379
289.6000	-1.01128	333.345
289.5000	-1.01695	333.35
289.4000	-0.970185	333.38
289.3000	-0.951277	333.448
289.2000	-0.90927	333.537
289.1000	-0.868109	333.646
289.0000	-0.83834	333.751
288.9000	-0.809289	333.86
288.8000	-0.789149	333.959
288.7000	-0.744756	334.045
288.6000	-0.791262	334.112
288.5000	-0.842498	334.162
288.4000	-0.801919	334.196
288.3000	-0.815222	334.224
288.2000	-0.838318	334.23
288.1000	-0.86927	334.224
288.0000	-0.91341	334.203
287.9000	-0.936408	334.168
287.8000	-0.953963	334.147
287.7000	-0.990873	334.117
287.6000	-1.04128	334.094
287.5000	-1.11904	334.052
287.4000	-1.20412	334.028
287.3000	-1.21539	334.014
287.2000	-1.16721	333.998
287.1000	-1.16147	333.986
287.0000	-1.17887	333.948
286.9000	-1.13502	333.93
286.8000	-1.11795	333.918
286.7000	-1.13767	333.899
286.6000	-1.04589	333.877
286.5000	-1.09425	333.863
286.4000	-1.16738	333.849
286.3000	-1.21787	333.846
286.2000	-1.22421	333.84
286.1000	-1.22845	333.827
286.0000	-1.22458	333.831
285.9000	-1.20122	333.825
285.8000	-1.24945	333.823
285.7000	-1.2378	333.799
285.6000	-1.13657	333.785
285.5000	-1.01559	333.794
285.4000	-0.982475	333.798
285.3000	-0.964953	333.81
285.2000	-0.951608	333.788
285.1000	-0.901547	333.783
285.0000	-0.831908	333.796
284.9000	-0.790249	333.797
284.8000	-0.748497	333.805
284.7000	-0.79038	333.783
284.6000	-0.826618	333.766
284.5000	-0.881607	333.771
284.4000	-0.947035	333.772
284.3000	-0.969454	333.779
284.2000	-0.994212	333.754
284.1000	-0.95026	333.749
284.0000	-0.968206	333.73
283.9000	-0.966072	333.734
283.8000	-0.959561	333.749
283.7000	-0.908937	333.739
283.6000	-0.790257	333.735
283.5000	-0.756183	333.726
283.4000	-0.715676	333.727
283.3000	-0.74476	333.74
283.2000	-0.694387	333.755
283.1000	-0.698858	333.764
283.0000	-0.729434	333.749
282.9000	-0.755655	333.742
282.8000	-0.788814	333.729
282.7000	-0.802009	333.738
282.6000	-0.8111	333.752
282.5000	-0.84141	333.753
282.4000	-0.905728	333.749
282.3000	-0.912222	333.743
282.2000	-0.867659	333.741
282.1000	-0.879993	333.754
282.0000	-0.895795	333.767
281.9000	-0.868997	333.772
281.8000	-0.894107	333.767
281.7000	-0.875542	333.761
281.6000	-0.832785	333.758
281.5000	-0.786646	333.757
281.4000	-0.804768	333.776
281.3000	-0.750981	333.791
281.2000	-0.64548	333.798
281.1000	-0.637671	333.8
281.0000	-0.64377	333.802
280.9000	-0.652626	333.801
280.8000	-0.661704	333.796
280.7000	-0.657768	333.796
280.6000	-0.628455	333.8
280.5000	-0.59284	333.792
280.4000	-0.599323	333.786
280.3000	-0.580519	333.777
280.2000	-0.579215	333.768
280.1000	-0.539448	333.761
280.0000	-0.52154	333.754
279.9000	-0.588137	333.743
279.8000	-0.659567	333.721
279.7000	-0.73773	333.716
279.6000	-0.799067	333.713
279.5000	-0.912333	333.712
279.4000	-0.948552	333.714
279.3000	-1.0311	333.712
279.2000	-1.10247	333.713
279.1000	-1.14491	333.717
279.0000	-1.16133	333.723
278.9000	-1.16527	333.722
278.8000	-1.14845	333.736
278.7000	-1.11493	333.752
278.6000	-1.10189	333.768
278.5000	-1.10048	333.79
278.4000	-1.05304	333.811
278.3000	-1.01618	333.834
278.2000	-0.931855	333.859
278.1000	-0.865288	333.876
278.0000	-0.899555	333.875
277.9000	-0.912044	333.867
277.8000	-0.918193	333.864
277.7000	-0.820195	333.866
277.6000	-0.7905	333.885
277.5000	-0.792858	333.897
277.4000	-0.844591	333.907
277.3000	-0.876495	333.919
277.2000	-0.884227	333.934
277.1000	-0.842882	333.953
277.0000	-0.808485	333.972
276.9000	-0.835001	333.984
276.8000	-0.883926	333.983
276.7000	-0.9019	333.982
276.6000	-0.905212	333.988
276.5000	-0.902163	333.996
276.4000	-0.893019	334.001
276.3000	-0.913614	334.004
276.2000	-0.933115	334.003
276.1000	-0.916157	334.008
276.0000	-0.930162	334.031
275.9000	-0.945247	334.055
275.8000	-0.905797	334.078
275.7000	-0.878532	334.1
275.6000	-0.880963	334.129
275.5000	-0.857093	334.158
275.4000	-0.88586	334.187
275.3000	-0.932199	334.214
275.2000	-0.914467	334.227
275.1000	-0.830238	334.238
275.0000	-0.755823	334.249
274.9000	-0.750492	334.259
274.8000	-0.730176	334.266
274.7000	-0.715314	334.272
274.6000	-0.656015	334.278
274.5000	-0.61709	334.288
274.4000	-0.591451	334.301
274.3000	-0.578921	334.318
274.2000	-0.602975	334.33
274.1000	-0.61876	334.344
274.0000	-0.667286	334.355
273.9000	-0.705624	334.373
273.8000	-0.799802	334.394
273.7000	-0.853261	334.418
273.6000	-0.894718	334.435
273.5000	-0.867799	334.449
273.4000	-0.884225	334.456
273.3000	-0.875805	334.469
273.2000	-0.827843	334.481
273.1000	-0.787163	334.49
273.0000	-0.754381	334.498
272.9000	-0.754738	334.502
272.8000	-0.750889	334.507
272.7000	-0.838255	334.517
272.6000	-0.91414	334.533
272.5000	-0.977853	334.553
272.4000	-1.08712	334.569
272.3000	-1.14593	334.588
272.2000	-1.12695	334.613
272.1000	-1.04638	334.644
272.0000	-1.02736	334.679
271.9000	-0.954866	334.711
271.8000	-0.918374	334.737
271.7000	-0.842164	334.76
271.6000	-0.764998	334.784
271.5000	-0.684241	334.813
271.4000	-0.694347	334.832
271.3000	-0.74459	334.837
271.2000	-0.776848	334.84
271.1000	-0.775089	334.847
271.0000	-0.761508	334.854
270.9000	-0.757524	334.843
270.8000	-0.73104	334.833
270.7000	-0.751599	334.819
270.6000	-0.828825	334.801
270.5000	-0.881807	334.794
270.4000	-0.83931	334.797
270.3000	-0.875485	334.788
270.2000	-0.904277	334.784
270.1000	-0.920388	334.796
270.0000	-0.94284	334.813
269.9000	-0.894108	334.833
269.8000	-0.833591	334.857
269.7000	-0.834322	334.871
269.6000	-0.827856	334.883
269.5000	-0.825412	334.893
269.4000	-0.857765	334.891
269.3000	-0.81822	334.9
269.2000	-0.763348	334.917
269.1000	-0.820153	334.939
269.0000	-0.835051	334.957
268.9000	-0.811684	334.987
268.8000	-0.843187	335.014
268.7000	-0.846223	335.055
268.6000	-0.810719	335.109
268.5000	-0.801072	335.164
268.4000	-0.884467	335.209
268.3000	-0.888879	335.238
268.2000	-0.91652	335.27
268.1000	-0.894178	335.298
268.0000	-0.869208	335.337
267.9000	-0.823377	335.371
267.8000	-0.818881	335.409
267.7000	-0.824158	335.447
267.6000	-0.846113	335.496
267.5000	-0.867592	335.552
267.4000	-0.874771	335.601
267.3000	-0.880669	335.662
267.2000	-0.825453	335.72
267.1000	-0.775809	335.783
267.0000	-0.715768	335.839
266.9000	-0.641406	335.901
266.8000	-0.529884	335.951
266.7000	-0.479886	335.99
266.6000	-0.484187	336.036
266.5000	-0.447828	336.08
266.4000	-0.484797	336.128
266.3000	-0.530489	336.174
266.2000	-0.532409	336.232
266.1000	-0.546585	336.284
266.0000	-0.502613	336.328
265.9000	-0.489852	336.385
265.8000	-0.418	336.452
265.7000	-0.433166	336.526
265.6000	-0.457057	336.596
265.5000	-0.420811	336.663
265.4000	-0.464362	336.709
265.3000	-0.605257	336.744
265.2000	-0.74501	336.795
265.1000	-0.845023	336.857
265.0000	-0.882978	336.921
264.9000	-0.933135	336.985
264.8000	-0.906409	337.032
264.7000	-0.95129	337.079
264.6000	-1.01929	337.139
264.5000	-1.00306	337.22
264.4000	-0.925991	337.306
264.3000	-0.891245	337.373
264.2000	-0.883779	337.435
264.1000	-0.866807	337.494
264.0000	-0.82715	337.565
263.9000	-0.747667	337.643
263.8000	-0.636328	337.712
263.7000	-0.538233	337.776
263.6000	-0.49304	337.838
263.5000	-0.483425	337.913
263.4000	-0.481351	337.997
263.3000	-0.501691	338.056
263.2000	-0.527859	338.12
263.1000	-0.567921	338.193
263.0000	-0.640746	338.273
262.9000	-0.639661	338.349
262.8000	-0.655847	338.431
262.7000	-0.656529	338.509
262.6000	-0.645815	338.583
262.5000	-0.547458	338.676
262.4000	-0.525948	338.763
262.3000	-0.529612	338.845
262.2000	-0.531756	338.924
262.1000	-0.505153	339.017
262.0000	-0.473035	339.085
261.9000	-0.418693	339.156
261.8000	-0.420697	339.235
261.7000	-0.404882	339.304
261.6000	-0.39164	339.379
261.5000	-0.359779	339.461
261.4000	-0.352214	339.541
261.3000	-0.333696	339.608
261.2000	-0.354465	339.694
261.1000	-0.443828	339.788
261.0000	-0.524465	339.877
260.9000	-0.617432	339.95
260.8000	-0.656398	340.036
260.7000	-0.596793	340.135
260.6000	-0.546317	340.223
260.5000	-0.544482	340.312
260.4000	-0.522009	340.399
260.3000	-0.462061	340.484
260.2000	-0.433349	340.553
260.1000	-0.456897	340.638
260.0000	-0.469414	340.731
259.9000	-0.560019	340.797
259.8000	-0.607433	340.871
259.7000	-0.568123	340.954
259.6000	-0.568597	341.03
259.5000	-0.651626	341.105
259.4000	-0.631247	341.195
259.3000	-0.551432	341.272
259.2000	-0.494616	341.351
259.1000	-0.46266	341.441
259.0000	-0.419142	341.525
258.9000	-0.451492	341.602
258.8000	-0.532809	341.689
258.7000	-0.543921	341.775
258.6000	-0.501675	341.864
258.5000	-0.484811	341.96
258.4000	-0.47783	342.043
258.3000	-0.493596	342.12
258.2000	-0.514122	342.209
258.1000	-0.581439	342.297
258.0000	-0.546278	342.399
257.9000	-0.528327	342.513
257.8000	-0.548008	342.616
257.7000	-0.659576	342.708
257.6000	-0.723556	342.819
257.5000	-0.708145	342.926
257.4000	-0.754146	343.034
257.3000	-0.745631	343.13
257.2000	-0.787939	343.221
257.1000	-0.8174	343.312
257.0000	-0.814846	343.401
256.9000	-0.765671	343.486
256.8000	-0.760542	343.545
256.7000	-0.738193	343.617
256.6000	-0.697769	343.699
256.5000	-0.690874	343.784
256.4000	-0.704752	343.868
256.3000	-0.699173	343.934
256.2000	-0.744829	344.002
256.1000	-0.701941	344.089
256.0000	-0.691861	344.18
255.9000	-0.640047	344.287
255.8000	-0.588175	344.384
255.7000	-0.531368	344.487
255.6000	-0.513323	344.592
255.5000	-0.534164	344.693
255.4000	-0.555144	344.789
255.3000	-0.590569	344.871
255.2000	-0.624074	344.967
255.1000	-0.60397	345.054
255.0000	-0.674116	345.134
254.9000	-0.751786	345.191
254.8000	-0.75828	345.251
254.7000	-0.715768	345.333
254.6000	-0.629416	345.421
254.5000	-0.620234	345.512
254.4000	-0.618022	345.595
254.3000	-0.655733	345.683
254.2000	-0.65898	345.768
254.1000	-0.644913	345.866
254.0000	-0.683302	345.958
253.9000	-0.683892	346.049
253.8000	-0.700359	346.127
253.7000	-0.672113	346.212
253.6000	-0.611162	346.296
253.5000	-0.604783	346.388
253.4000	-0.610166	346.471
253.3000	-0.582035	346.557
253.2000	-0.51569	346.645
253.1000	-0.537145	346.729
253.0000	-0.569717	346.809
252.9000	-0.538426	346.892
252.8000	-0.533323	346.977
252.7000	-0.540167	347.062
252.6000	-0.542791	347.145
252.5000	-0.577891	347.24
252.4000	-0.601295	347.324
252.3000	-0.584727	347.415
252.2000	-0.54357	347.51
252.1000	-0.570058	347.617
252.0000	-0.581051	347.719
251.9000	-0.587987	347.809
251.8000	-0.580067	347.906
251.7000	-0.51688	347.995
251.6000	-0.483109	348.098
251.5000	-0.513167	348.189
251.4000	-0.501868	348.287
251.3000	-0.474431	348.373
251.2000	-0.467662	348.453
251.1000	-0.42519	348.549
251.0000	-0.368116	348.644
250.9000	-0.386981	348.745
250.8000	-0.35801	348.841
250.7000	-0.273275	348.939
250.6000	-0.230881	349.032
250.5000	-0.250541	349.123
250.4000	-0.324092	349.225
250.3000	-0.393459	349.321
250.2000	-0.536077	349.42
250.1000	-0.624571	349.51
250.0000	-0.708999	349.593
249.9000	-0.805887	349.687
249.8000	-0.916712	349.782
249.7000	-0.986064	349.887
249.6000	-0.954138	349.985
249.5000	-0.876766	350.08
249.4000	-0.807973	350.186
249.3000	-0.809448	350.292
249.2000	-0.704634	350.4
249.1000	-0.61536	350.515
249.0000	-0.526095	350.622
248.9000	-0.465411	350.717
248.8000	-0.498637	350.817
248.7000	-0.501209	350.92
248.6000	-0.48784	351.018
248.5000	-0.457743	351.111
248.4000	-0.487547	351.199
248.3000	-0.540579	351.279
248.2000	-0.530059	351.367
248.1000	-0.609765	351.462
248.0000	-0.633094	351.56
247.9000	-0.68071	351.66
247.8000	-0.703824	351.754
247.7000	-0.763242	351.838
247.6000	-0.699465	351.944
247.5000	-0.681949	352.053
247.4000	-0.657967	352.154
247.3000	-0.563492	352.247
247.2000	-0.489716	352.336
247.1000	-0.398165	352.407
247.0000	-0.36502	352.472
246.9000	-0.352272	352.546
246.8000	-0.358147	352.606
246.7000	-0.429398	352.66
246.6000	-0.445415	352.721
246.5000	-0.528803	352.792
246.4000	-0.500071	352.862
246.3000	-0.465305	352.936
246.2000	-0.474345	353.018
246.1000	-0.470309	353.112
246.0000	-0.447392	353.214
245.9000	-0.376707	353.324
245.8000	-0.363759	353.429
245.7000	-0.340875	353.537
245.6000	-0.377604	353.643
245.5000	-0.383802	353.753
245.4000	-0.371568	353.86
245.3000	-0.356978	353.959
245.2000	-0.356673	354.074
245.1000	-0.419687	354.184
245.0000	-0.436717	354.295
244.9000	-0.420562	354.406
244.8000	-0.456482	354.508
244.7000	-0.549558	354.62
244.6000	-0.660676	354.737
244.5000	-0.745908	354.858
244.4000	-0.773563	354.963
244.3000	-0.697312	355.059
244.2000	-0.624391	355.159
244.1000	-0.562859	355.265
244.0000	-0.509899	355.366
243.9000	-0.487434	355.463
243.8000	-0.398666	355.56
243.7000	-0.334095	355.657
243.6000	-0.305748	355.752
243.5000	-0.365718	355.853
243.4000	-0.415439	355.967
243.3000	-0.581703	356.076
243.2000	-0.725484	356.188
243.1000	-0.729054	356.308
243.0000	-0.785431	356.426
242.9000	-0.826074	356.546
242.8000	-0.815574	356.666
242.7000	-0.786976	356.785
242.6000	-0.741627	356.902
242.5000	-0.680263	357.016
242.4000	-0.542245	357.142
242.3000	-0.459906	357.268
242.2000	-0.402498	357.393
242.1000	-0.384252	357.515
242.0000	-0.368343	357.64
241.9000	-0.390806	357.765
241.8000	-0.444828	357.88
241.7000	-0.466968	357.993
241.6000	-0.509825	358.098
241.5000	-0.568109	358.204
241.4000	-0.65612	358.314
241.3000	-0.634726	358.43
241.2000	-0.577007	358.549
241.1000	-0.56583	358.664
241.0000	-0.555834	358.787
240.9000	-0.583972	358.913
240.8000	-0.696066	359.037
240.7000	-0.732399	359.163
240.6000	-0.687128	359.294
240.5000	-0.715156	359.43
240.4000	-0.776003	359.568
240.3000	-0.754225	359.717
240.2000	-0.714299	359.868
240.1000	-0.649869	360.025
240.0000	-0.54799	360.183
239.9000	-0.539276	360.335
239.8000	-0.595872	360.488
239.7000	-0.583282	360.639
239.6000	-0.582844	360.787
239.5000	-0.608993	360.936
239.4000	-0.640364	361.084
239.3000	-0.601654	361.233
239.2000	-0.664844	361.375
239.1000	-0.732156	361.525
239.0000	-0.72551	361.681
238.9000	-0.723512	361.836
238.8000	-0.725303	361.991
238.7000	-0.806874	362.141
238.6000	-0.928565	362.279
238.5000	-1.03939	362.413
238.4000	-1.08064	362.558
238.3000	-1.01894	362.711
238.2000	-0.948348	362.864
238.1000	-1.00315	363.012
238.0000	-1.02164	363.164
237.9000	-0.880896	363.327
237.8000	-0.743896	363.494
237.7000	-0.588363	363.667
237.6000	-0.461863	363.841
237.5000	-0.388999	364.016
237.4000	-0.364111	364.19
237.3000	-0.232405	364.37
237.2000	-0.135272	364.552
237.1000	-0.153193	364.724
237.0000	-0.218375	364.899
236.9000	-0.245612	365.079
236.8000	-0.329172	365.256
236.7000	-0.396895	365.436
236.6000	-0.470156	365.611
236.5000	-0.543673	365.791
236.4000	-0.563912	365.972
236.3000	-0.583993	366.154
236.2000	-0.615915	366.339
236.1000	-0.632131	366.517
236.0000	-0.612173	366.699
235.9000	-0.643145	366.877
235.8000	-0.627341	367.059
235.7000	-0.605125	367.231
235.6000	-0.561268	367.399
235.5000	-0.51764	367.57
235.4000	-0.484307	367.747
235.3000	-0.453863	367.921
235.2000	-0.459321	368.098
235.1000	-0.391732	368.279
235.0000	-0.373566	368.461
234.9000	-0.421135	368.646
234.8000	-0.522993	368.833
234.7000	-0.594071	369.029
234.6000	-0.72835	369.216
234.5000	-0.705845	369.415
234.4000	-0.831214	369.618
234.3000	-0.878994	369.816
234.2000	-0.847643	370.014
234.1000	-0.73568	370.22
234.0000	-0.748488	370.415
233.9000	-0.76882	370.609
233.8000	-0.671278	370.805
233.7000	-0.710123	370.993
233.6000	-0.766753	371.178
233.5000	-0.772394	371.368
233.4000	-0.783548	371.557
233.3000	-0.918443	371.748
233.2000	-0.943152	371.951
233.1000	-0.914175	372.146
233.0000	-1.04688	372.34
232.9000	-1.11107	372.54
232.8000	-1.00047	372.752
232.7000	-1.01599	372.962
232.6000	-1.1267	373.166
232.5000	-1.22755	373.366
232.4000	-1.18787	373.558
232.3000	-1.21758	373.757
232.2000	-1.18678	373.953
232.1000	-1.14624	374.154
232.0000	-1.15501	374.346
231.9000	-1.08731	374.544
231.8000	-0.892054	374.745
231.7000	-0.727728	374.95
231.6000	-0.692015	375.161
231.5000	-0.710822	375.366
231.4000	-0.679462	375.575
231.3000	-0.581902	375.782
231.2000	-0.616151	375.99
231.1000	-0.66372	376.19
231.0000	-0.784968	376.389
230.9000	-0.882302	376.597
230.8000	-0.906346	376.799
230.7000	-0.891991	377.013
230.6000	-0.802878	377.226
230.5000	-0.823991	377.444
230.4000	-0.804723	377.664
230.3000	-0.695017	377.892
230.2000	-0.617033	378.115
230.1000	-0.562888	378.342
230.0000	-0.457216	378.569
229.9000	-0.414306	378.782
229.8000	-0.458792	378.995
229.7000	-0.460796	379.199
229.6000	-0.423022	379.4
229.5000	-0.413407	379.59
229.4000	-0.462255	379.774
229.3000	-0.522022	379.954
229.2000	-0.614441	380.126
229.1000	-0.659471	380.304
229.0000	-0.687938	380.492
228.9000	-0.693355	380.683
228.8000	-0.736591	380.877
228.7000	-0.735174	381.087
228.6000	-0.710539	381.305
228.5000	-0.609413	381.538
228.4000	-0.597223	381.779
228.3000	-0.640962	382.023
228.2000	-0.685929	382.26
228.1000	-0.714199	382.508
228.0000	-0.732138	382.76
227.9000	-0.723352	383.01
227.8000	-0.706662	383.258
227.7000	-0.629845	383.512
227.6000	-0.631691	383.759
227.5000	-0.534743	384.004
227.4000	-0.425911	384.25
227.3000	-0.399723	384.498
227.2000	-0.358119	384.739
227.1000	-0.360158	384.983
227.0000	-0.313772	385.225
226.9000	-0.372808	385.454
226.8000	-0.447064	385.679
226.7000	-0.535832	385.905
226.6000	-0.516214	386.136
226.5000	-0.374551	386.364
226.4000	-0.370546	386.583
226.3000	-0.452459	386.793
226.2000	-0.575694	387.01
226.1000	-0.764284	387.229
226.0000	-0.84113	387.451
225.9000	-0.879504	387.674
225.8000	-0.870683	387.9
225.7000	-1.00596	388.124
225.6000	-1.00717	388.356
225.5000	-0.888572	388.593
225.4000	-0.924751	388.822
225.3000	-0.922988	389.058
225.2000	-0.870417	389.3
225.1000	-0.864254	389.541
225.0000	-0.92447	389.78
224.9000	-0.920253	390.021
224.8000	-1.02263	390.258
224.7000	-1.10946	390.498
224.6000	-1.12573	390.742
224.5000	-1.10327	390.979
224.4000	-1.20786	391.206
224.3000	-1.14053	391.443
224.2000	-1.05253	391.678
224.1000	-1.11659	391.91
224.0000	-1.16447	392.142
223.9000	-1.22438	392.369
223.8000	-1.30222	392.596
223.7000	-1.32931	392.825
223.6000	-1.27701	393.062
223.5000	-1.2301	393.3
223.4000	-1.25159	393.531
223.3000	-1.07303	393.763
223.2000	-0.974057	393.993
223.1000	-0.777496	394.231
223.0000	-0.588739	394.468
222.9000	-0.528951	394.7
222.8000	-0.364668	394.934
222.7000	-0.275692	395.162
222.6000	-0.329777	395.383
222.5000	-0.38307	395.609
222.4000	-0.404567	395.83
222.3000	-0.4076	396.051
222.2000	-0.392261	396.271
222.1000	-0.452022	396.485
222.0000	-0.557078	396.699
221.9000	-0.752418	396.906
221.8000	-0.919278	397.113
221.7000	-0.897812	397.332
221.6000	-0.847876	397.554
221.5000	-0.822297	397.78
221.4000	-0.889297	397.996
221.3000	-0.883763	398.217
221.2000	-0.871952	398.44
221.1000	-0.790872	398.667
221.0000	-0.725738	398.894
220.9000	-0.674741	399.117
220.8000	-0.76182	399.336
220.7000	-0.886923	399.548
220.6000	-0.936921	399.766
220.5000	-0.886871	399.995
220.4000	-0.840907	400.216
220.3000	-0.925995	400.435
220.2000	-0.820404	400.666
220.1000	-0.618709	400.895
220.0000	-0.534119	401.122
219.9000	-0.541379	401.35
219.8000	-0.555326	401.578
219.7000	-0.561121	401.803
219.6000	-0.566323	402.024
219.5000	-0.445291	402.253
219.4000	-0.447667	402.48
219.3000	-0.546381	402.704
219.2000	-0.639342	402.931
219.1000	-0.564377	403.161
219.0000	-0.510049	403.389
218.9000	-0.452194	403.612
218.8000	-0.45646	403.84
218.7000	-0.548825	404.06
218.6000	-0.561562	404.286
218.5000	-0.560669	404.506
218.4000	-0.483852	404.734
218.3000	-0.46361	404.954
218.2000	-0.534422	405.173
218.1000	-0.61189	405.391
218.0000	-0.701583	405.612
217.9000	-0.691881	405.835
217.8000	-0.631661	406.051
217.7000	-0.656628	406.27
217.6000	-0.662633	406.487
217.5000	-0.764581	406.708
217.4000	-0.724808	406.929
217.3000	-0.546269	407.156
217.2000	-0.517665	407.383
217.1000	-0.590746	407.601
217.0000	-0.534207	407.826
216.9000	-0.488975	408.052
216.8000	-0.542428	408.273
216.7000	-0.560022	408.49
216.6000	-0.638444	408.71
216.5000	-0.864274	408.924
216.4000	-0.969155	409.135
216.3000	-0.915617	409.353
216.2000	-0.914063	409.578
216.1000	-0.918102	409.801
216.0000	-0.973877	410.022
215.9000	-0.926477	410.246
215.8000	-0.848963	410.471
215.7000	-0.592993	410.709
215.6000	-0.571707	410.945
215.5000	-0.582304	411.182
215.4000	-0.661972	411.411
215.3000	-0.78525	411.639
215.2000	-0.871028	411.866
215.1000	-0.987895	412.104
215.0000	-1.19016	412.336
214.9000	-1.31573	412.569
214.8000	-1.36439	412.799
214.7000	-1.31467	413.035
214.6000	-1.31331	413.273
214.5000	-1.16535	413.514
214.4000	-1.07431	413.758
214.3000	-0.774769	414.004
214.2000	-0.569788	414.245
214.1000	-0.487485	414.484
214.0000	-0.414201	414.724
213.9000	-0.422148	414.965
213.8000	-0.267242	415.208
213.7000	-0.102099	415.457
213.6000	-0.11299	415.701
213.5000	-0.22923	415.943
213.4000	-0.48332	416.186
213.3000	-0.672144	416.432
213.2000	-0.738782	416.686
213.1000	-0.666236	416.947
213.0000	-0.731624	417.206
212.9000	-0.939243	417.461
212.8000	-1.10305	417.709
212.7000	-1.1173	417.965
212.6000	-0.99712	418.223
212.5000	-0.944846	418.483
212.4000	-0.934681	418.742
212.3000	-0.842386	419
212.2000	-0.770965	419.257
212.1000	-0.578628	419.518
212.0000	-0.405168	419.794
211.9000	-0.348677	420.071
211.8000	-0.36587	420.343
211.7000	-0.254856	420.619
211.6000	-0.0462903	420.904
211.5000	0.109648	421.184
211.4000	0.19583	421.466
211.3000	0.164038	421.751
211.2000	0.0260464	422.023
211.1000	0.0870779	422.303
211.0000	0.136307	422.588
210.9000	0.00956522	422.867
210.8000	-0.123751	423.145
210.7000	-0.34474	423.429
210.6000	-0.534011	423.713
210.5000	-0.756967	423.998
210.4000	-0.737325	424.298
210.3000	-0.633151	424.606
210.2000	-0.634041	424.905
210.1000	-0.565008	425.211
210.0000	-0.465445	425.518
209.9000	-0.338678	425.83
209.8000	-0.360375	426.133
209.7000	-0.387982	426.438
209.6000	-0.386915	426.741
209.5000	-0.377582	427.046
209.4000	-0.428139	427.35
209.3000	-0.601852	427.652
209.2000	-0.82738	427.958
209.1000	-1.09659	428.257
209.0000	-1.20489	428.566
208.9000	-1.2552	428.881
208.8000	-1.28098	429.195
208.7000	-1.33948	429.51
208.6000	-1.41905	429.831
208.5000	-1.43063	430.156
208.4000	-1.15936	430.488
208.3000	-0.871238	430.828
208.2000	-0.661999	431.168
208.1000	-0.3457	431.51
208.0000	-0.210845	431.847
207.9000	0.0195108	432.188
207.8000	0.144024	432.529
207.7000	0.237326	432.867
207.6000	0.224688	433.203
207.5000	0.115975	433.536
207.4000	0.150328	433.867
207.3000	-0.00562265	434.194
207.2000	-0.120759	434.523
207.1000	-0.121666	434.858
207.0000	-0.104061	435.193
206.9000	-0.207475	435.523
206.8000	-0.0974721	435.859
206.7000	-0.118834	436.189
206.6000	-0.19093	436.522
206.5000	-0.186489	436.858
206.4000	-0.0256562	437.203
206.3000	-0.221908	437.534
206.2000	-0.497672	437.857
206.1000	-0.628544	438.184
206.0000	-0.734159	438.512
205.9000	-0.577363	438.85
205.8000	-0.371303	439.19
205.7000	-0.311151	439.533
205.6000	-0.491402	439.868
205.5000	-0.378558	440.217
205.4000	-0.285947	440.567
205.3000	-0.118273	440.923
205.2000	-0.139043	441.281
205.1000	-0.16676	441.641
205.0000	-0.435741	441.993
204.9000	-0.613611	442.347
204.8000	-0.658962	442.706
204.7000	-0.658715	443.07
204.6000	-0.688513	443.433
204.5000	-0.411489	443.811
204.4000	-0.1343	444.184
204.3000	-0.0213962	444.558
204.2000	0.290379	444.941
204.1000	0.492877	445.319
204.0000	0.692687	445.699
203.9000	0.735379	446.073
203.8000	0.679245	446.447
203.7000	0.524694	446.819
203.6000	0.370532	447.196
203.5000	0.418247	447.58
203.4000	0.291132	447.962
203.3000	0.251963	448.352
203.2000	0.0483101	448.742
203.1000	-0.217957	449.135
203.0000	-0.17593	449.541
202.9000	-0.111324	449.951
202.8000	-0.132242	450.354
202.7000	-0.29842	450.758
202.6000	-0.37149	451.167
202.5000	-0.317408	451.577
202.4000	-0.359088	451.988
202.3000	-0.408563	452.401
202.2000	-0.137611	452.824
202.1000	-0.120265	453.243
202.0000	-0.173985	453.665
201.9000	-0.0901125	454.101
201.8000	-0.120548	454.537
201.7000	-0.246273	454.978
201.6000	-0.204669	455.43
201.5000	0.0145585	455.89
201.4000	0.13616	456.355
201.3000	0.173263	456.824
201.2000	0.506036	457.308
201.1000	0.777886	457.791
201.0000	0.866794	458.274
200.9000	0.660162	458.754
200.8000	0.43523	459.24
200.7000	0.365794	459.742
200.6000	0.213437	460.252
200.5000	0.0312655	460.774
200.4000	-0.170208	461.305
200.3000	-0.529569	461.842
200.2000	-0.782475	462.391
200.1000	-0.692673	462.952
200.0000	-0.421298	463.525
199.9000	-0.451047	464.086
199.8000	-0.343761	464.648
199.7000	-0.0691264	465.205
199.6000	0.0840784	465.755
199.5000	0.0636392	466.304
199.4000	0.151156	466.851
199.3000	0.38355	467.403
199.2000	0.35869	467.954
199.1000	0.446087	468.514
199.0000	0.523399	469.077
198.9000	0.297533	469.646
198.8000	0.29242	470.234
198.7000	0.464867	470.838
198.6000	0.706044	471.456
198.5000	0.721356	472.085
198.4000	0.719676	472.72
198.3000	0.780167	473.362
198.2000	0.709829	474.02
198.1000	0.833873	474.703
198.0000	0.746221	475.402
197.9000	0.713547	476.114
197.8000	0.535847	476.825
197.7000	0.454078	477.55
197.6000	0.417916	478.281
197.5000	0.357109	479.016
197.4000	0.359705	479.739
197.3000	0.366865	480.437
197.2000	0.413866	481.097
197.1000	0.268844	481.712
197.0000	-0.0482732	482.303
196.9000	-0.275293	482.877
196.8000	-0.324075	483.443
196.7000	-0.234984	484.02
196.6000	-0.10356	484.611
196.5000	-0.322514	485.219
196.4000	-0.394866	485.878
196.3000	-0.24434	486.592
196.2000	0.129492	487.366
196.1000	0.139805	488.183
196.0000	0.232527	489.067
195.9000	0.16925	490.019
195.8000	0.0276327	491.059
195.7000	-0.137698	492.207
195.6000	-0.177618	493.465
195.5000	-0.434809	494.824
195.4000	-0.619173	496.265
195.3000	-0.577263	497.767
195.2000	-0.587156	499.287
195.1000	-0.544826	500.797
195.0000	-0.578065	502.226
194.9000	-0.304964	503.529
194.8000	-0.331437	504.656
194.7000	-0.463375	505.607
194.6000	-0.623843	506.426
194.5000	-0.762356	507.141
194.4000	-0.772923	507.806
194.3000	-0.894266	508.443
194.2000	-0.675173	509.136
194.1000	-0.631855	509.937
194.0000	-0.615655	510.902
193.9000	-0.212394	512.086
193.8000	0.00489437	513.484
193.7000	-0.079059	515.133
193.6000	-0.153034	517.063
193.5000	-0.0158735	519.313
193.4000	-0.0489876	521.906
193.3000	-0.154181	524.847
193.2000	-0.168899	528.111
193.1000	-0.101876	531.629
193.0000	0.021868	535.313
192.9000	0.419124	539.054
192.8000	0.800833	542.7
192.7000	1.08785	546.099
192.6000	0.924454	549.031
192.5000	1.04495	551.436
192.4000	1.06512	553.307
192.3000	1.15828	554.729
192.2000	0.966514	555.787
192.1000	0.668835	556.586
192.0000	0.563546	557.288
191.9000	0.55011	558.06
191.8000	0.974891	559.156
191.7000	1.09099	560.731
191.6000	0.96677	562.857
191.5000	1.33041	565.597
191.4000	1.40201	568.905
191.3000	1.65829	572.875
191.2000	2.00968	577.519
191.1000	1.79835	582.817
191.0000	1.83962	588.715
190.9000	1.68986	595.064
190.8000	1.94694	601.776
190.7000	1.7366	608.654
190.6000	1.46316	615.546
190.5000	1.63037	622.226
190.4000	1.89735	628.373
190.3000	2.15884	633.787
190.2000	0.903488	638.393
190.1000	0.911628	642.352
190.0000	1.49467	645.786

##### Extended Information
[Comments]
Sample name	cal_0.6uM
Comment
User
Division
Company	CSIR-IMTECH

[Detailed Information]
Creation date	4/9/2024 3:28 PM

Data array type	Linear data array * 2
Horizontal axis	Wavelength [nm]
Vertical axis(1)	CD [mdeg]
Vertical axis(2)	HT [V]
Start	350 nm
End	190 nm
Data interval	0.1 nm
Data points	1601    

[Measurement Information]
Instrument Name	JASCO CD
Model Name	J-815
Serial No.	B063061168

Accessory	PTC-423S
Accessory S/N	C013945-01
  Temperature	36.91 C
  Control Sonsor	Cell
  Monitor Sensor	Cell
  Start Mode	Start immediately
  Cell Length	10 mm

Measurement date	4/9/2024 3:28 PM

Photometric Mode	CD, HT
Measure Range	350 - 190 nm
Data pitch	0.1 nm
Sensitivity	Standard
D.I.T.	1 sec
Bandwidth	1.00 nm
Start Mode	Immediately
Scanning Speed	50 nm/min
Baseline Correction	None
Shutter Control	Auto
CD Detector	PMT
PMT Voltage	Auto
Accumulations	3
Concentration	0.6 umol/L

