TITLE	ACE2
DATA TYPE	
ORIGIN	JASCO
OWNER	
DATE	24/04/09
TIME	16:05:26
SPECTROMETER/DATA SYSTEM	
LOCALE	1033
RESOLUTION	
DELTAX	-0.1
XUNITS	NANOMETERS
YUNITS	CD [mdeg]
Y2UNITS	HT [V]
FIRSTX	  350.0000
LASTX	  190.0000
NPOINTS	    1601
FIRSTY	     0.45047
MAXY	     6.50833
MINY	    -2.31567
XYDATA
350.0000	0.450474	468.138
349.9000	0.259179	467.561
349.8000	0.334637	466.686
349.7000	0.190606	465.782
349.6000	0.181416	465.131
349.5000	-0.0919733	464.559
349.4000	-0.191659	463.703
349.3000	0.00881155	463.095
349.2000	0.0251601	462.568
349.1000	-0.0266748	461.731
349.0000	-0.175467	461.112
348.9000	-0.00970751	460.58
348.8000	0.0840875	459.773
348.7000	0.216871	458.964
348.6000	0.167181	458.375
348.5000	0.143345	457.86
348.4000	0.155551	457.016
348.3000	0.217791	456.397
348.2000	0.167767	455.848
348.1000	0.134306	455.029
348.0000	0.0407109	454.408
347.9000	0.0386451	453.856
347.8000	-0.0252615	453.02
347.7000	-0.00603006	452.171
347.6000	-0.129193	451.562
347.5000	-0.0786807	451.056
347.4000	0.185307	450.287
347.3000	0.228583	449.705
347.2000	0.169161	449.202
347.1000	0.170525	448.45
347.0000	0.23954	447.904
346.9000	0.311498	447.436
346.8000	0.280479	446.702
346.7000	0.0628406	445.956
346.6000	-0.332928	445.397
346.5000	-0.611385	444.666
346.4000	-0.718905	443.926
346.3000	-0.867275	443.359
346.2000	-0.950091	442.607
346.1000	-1.02935	441.836
346.0000	-0.921987	441.264
345.9000	-0.71082	440.766
345.8000	-0.437906	439.998
345.7000	-0.216472	439.421
345.6000	-0.0502181	438.923
345.5000	0.367609	438.215
345.4000	0.541008	437.698
345.3000	0.626583	437.265
345.2000	0.476228	436.587
345.1000	0.350337	435.909
345.0000	0.278143	435.423
344.9000	0.212593	434.787
344.8000	0.205147	434.138
344.7000	0.0663116	433.636
344.6000	-0.0164122	432.996
344.5000	0.0662653	432.345
344.4000	0.163881	431.859
344.3000	0.296494	431.189
344.2000	0.289459	430.496
344.1000	0.265819	429.968
344.0000	0.249171	429.309
343.9000	0.265574	428.646
343.8000	0.283485	428.15
343.7000	0.2604	427.714
343.6000	0.380024	427.052
343.5000	0.438366	426.582
343.4000	0.630941	426.201
343.3000	0.715411	425.599
343.2000	0.76351	425.158
343.1000	0.71893	424.768
343.0000	0.582189	424.182
342.9000	0.642379	423.587
342.8000	0.549849	423.146
342.7000	0.388146	422.551
342.6000	0.245055	421.946
342.5000	0.133321	421.488
342.4000	0.0714049	420.907
342.3000	0.153111	420.324
342.2000	0.350032	419.877
342.1000	0.315848	419.297
342.0000	0.180396	418.711
341.9000	0.160963	418.296
341.8000	0.131676	417.743
341.7000	0.0843635	417.184
341.6000	0.00395092	416.774
341.5000	-0.199162	416.259
341.4000	-0.43807	415.741
341.3000	-0.519333	415.364
341.2000	-0.478666	414.828
341.1000	-0.402956	414.278
341.0000	-0.496973	413.861
340.9000	-0.457063	413.336
340.8000	-0.289358	412.798
340.7000	-0.265025	412.369
340.6000	-0.248403	411.823
340.5000	-0.304654	411.267
340.4000	-0.286623	410.866
340.3000	-0.364038	410.346
340.2000	-0.307531	409.829
340.1000	-0.245435	409.45
340.0000	-0.260649	408.976
339.9000	-0.361044	408.499
339.8000	-0.470012	408.139
339.7000	-0.500658	407.694
339.6000	-0.466619	407.246
339.5000	-0.450956	406.931
339.4000	-0.455667	406.491
339.3000	-0.375234	406.029
339.2000	-0.398397	405.521
339.1000	-0.296198	405.061
339.0000	-0.00806517	404.595
338.9000	0.116112	404.052
338.8000	0.0968365	403.544
338.7000	0.102393	403.032
338.6000	0.158732	402.482
338.5000	0.112529	401.997
338.4000	-0.0429767	401.631
338.3000	-0.146358	401.183
338.2000	-0.203113	400.736
338.1000	-0.190197	400.428
338.0000	-0.104823	400.026
337.9000	-0.0324987	399.621
337.8000	-0.0495741	399.341
337.7000	-0.0287557	398.977
337.6000	0.0233401	398.601
337.5000	0.167594	398.316
337.4000	0.27114	397.942
337.3000	0.298688	397.542
337.2000	0.243904	397.078
337.1000	0.231885	396.661
337.0000	0.243452	396.235
336.9000	0.169759	395.785
336.8000	0.0705996	395.387
336.7000	-0.0812301	394.986
336.6000	-0.242537	394.538
336.5000	-0.224035	394.14
336.4000	-0.260352	393.867
336.3000	-0.276028	393.497
336.2000	-0.312959	393.122
336.1000	-0.305131	392.842
336.0000	-0.238742	392.478
335.9000	-0.1122	392.097
335.8000	-0.0994844	391.674
335.7000	-0.20515	391.291
335.6000	-0.261621	390.898
335.5000	-0.290026	390.49
335.4000	-0.293969	390.132
335.3000	-0.287142	389.771
335.2000	-0.205118	389.388
335.1000	-0.192747	389.047
335.0000	-0.212899	388.821
334.9000	-0.0993844	388.505
334.8000	-0.0721625	388.175
334.7000	0.0326382	387.827
334.6000	0.0666106	387.523
334.5000	0.145815	387.21
334.4000	0.178996	386.832
334.3000	0.166281	386.481
334.2000	0.171164	386.113
334.1000	0.129182	385.719
334.0000	0.157394	385.378
333.9000	0.0928556	385.12
333.8000	0.0654663	384.775
333.7000	0.0631696	384.422
333.6000	0.0229273	384.051
333.5000	0.0949054	383.739
333.4000	0.196263	383.429
333.3000	0.264143	383.099
333.2000	0.311237	382.811
333.1000	0.461777	382.523
333.0000	0.49127	382.211
332.9000	0.478464	381.931
332.8000	0.447492	381.6
332.7000	0.334963	381.299
332.6000	0.180732	380.989
332.5000	0.0823988	380.657
332.4000	-0.0499241	380.361
332.3000	-0.204798	380.055
332.2000	-0.277119	379.702
332.1000	-0.277681	379.382
332.0000	-0.284027	379.059
331.9000	-0.283666	378.792
331.8000	-0.375456	378.524
331.7000	-0.333917	378.218
331.6000	-0.259222	377.938
331.5000	-0.112876	377.547
331.4000	-0.00905338	377.246
331.3000	0.00678754	376.982
331.2000	-0.0208876	376.68
331.1000	-0.0313955	376.406
331.0000	0.0339154	376.122
330.9000	0.13107	375.831
330.8000	0.140703	375.575
330.7000	-0.000872846	375.27
330.6000	-0.158027	375.001
330.5000	-0.230928	374.736
330.4000	-0.257699	374.46
330.3000	-0.274565	374.225
330.2000	-0.242301	373.886
330.1000	-0.250501	373.61
330.0000	-0.387635	373.356
329.9000	-0.445149	373.088
329.8000	-0.460884	372.856
329.7000	-0.461022	372.532
329.6000	-0.45143	372.272
329.5000	-0.388567	372.035
329.4000	-0.37945	371.751
329.3000	-0.366391	371.493
329.2000	-0.35227	371.137
329.1000	-0.218428	370.86
329.0000	-0.158016	370.618
328.9000	-0.104538	370.356
328.8000	-0.0492047	370.122
328.7000	-0.0104583	369.795
328.6000	0.0868463	369.555
328.5000	0.115748	369.359
328.4000	0.137438	369.127
328.3000	0.1484	368.921
328.2000	0.233675	368.638
328.1000	0.202251	368.405
328.0000	0.184158	368.194
327.9000	0.0615887	367.937
327.8000	-0.138178	367.703
327.7000	-0.23099	367.436
327.6000	-0.257007	367.252
327.5000	-0.208944	367.113
327.4000	-0.222323	366.85
327.3000	-0.222416	366.611
327.2000	-0.186307	366.333
327.1000	-0.152771	366.134
327.0000	-0.0173833	365.974
326.9000	0.0957822	365.72
326.8000	0.0437276	365.455
326.7000	0.00822068	365.146
326.6000	-0.0648849	364.956
326.5000	-0.0788983	364.827
326.4000	-0.0839904	364.573
326.3000	-0.122902	364.32
326.2000	-0.122575	364.051
326.1000	-0.114231	363.867
326.0000	-0.030313	363.576
325.9000	0.0475589	363.312
325.8000	0.12467	363.061
325.7000	0.11802	362.81
325.6000	0.14836	362.67
325.5000	0.147359	362.397
325.4000	0.277954	362.137
325.3000	0.226937	361.868
325.2000	0.128924	361.697
325.1000	0.0499424	361.575
325.0000	-0.0375777	361.302
324.9000	-0.128198	361.023
324.8000	-0.252511	360.733
324.7000	-0.360778	360.579
324.6000	-0.488193	360.491
324.5000	-0.507339	360.232
324.4000	-0.579706	359.971
324.3000	-0.626577	359.74
324.2000	-0.571153	359.619
324.1000	-0.518302	359.378
324.0000	-0.432759	359.137
323.9000	-0.33902	358.885
323.8000	-0.290406	358.654
323.7000	-0.254589	358.542
323.6000	-0.138496	358.299
323.5000	0.0116063	358.028
323.4000	0.0285093	357.752
323.3000	0.0341146	357.602
323.2000	0.00370713	357.506
323.1000	0.0275009	357.249
323.0000	0.1072	356.975
322.9000	0.108703	356.699
322.8000	0.0890811	356.56
322.7000	0.00379287	356.318
322.6000	-0.0339042	356.058
322.5000	-0.0703796	355.792
322.4000	-0.0339413	355.53
322.3000	-0.0539626	355.372
322.2000	-0.108145	355.096
322.1000	-0.13246	354.799
322.0000	-0.233951	354.5
321.9000	-0.244774	354.327
321.8000	-0.252482	354.047
321.7000	-0.250066	353.758
321.6000	-0.176916	353.461
321.5000	-0.138498	353.187
321.4000	-0.133209	353.046
321.3000	-0.178469	352.841
321.2000	-0.16033	352.64
321.1000	-0.173747	352.441
321.0000	-0.187358	352.378
320.9000	-0.198939	352.242
320.8000	-0.343154	352.102
320.7000	-0.480111	351.967
320.6000	-0.514899	351.83
320.5000	-0.488807	351.787
320.4000	-0.475844	351.629
320.3000	-0.559545	351.451
320.2000	-0.57432	351.281
320.1000	-0.551944	351.211
320.0000	-0.449824	351.051
319.9000	-0.337109	350.877
319.8000	-0.232448	350.693
319.7000	-0.206947	350.499
319.6000	-0.196737	350.289
319.5000	-0.108398	350.135
319.4000	-0.0128641	349.967
319.3000	-0.0645942	349.768
319.2000	-0.134525	349.663
319.1000	-0.212598	349.467
319.0000	-0.373405	349.256
318.9000	-0.41374	349.047
318.8000	-0.451894	348.925
318.7000	-0.441256	348.706
318.6000	-0.471938	348.478
318.5000	-0.388914	348.28
318.4000	-0.310764	348.088
318.3000	-0.282604	347.875
318.2000	-0.190041	347.717
318.1000	-0.261101	347.556
318.0000	-0.276139	347.392
317.9000	-0.285051	347.329
317.8000	-0.27528	347.21
317.7000	-0.349913	347.07
317.6000	-0.422005	346.896
317.5000	-0.507503	346.801
317.4000	-0.562077	346.645
317.3000	-0.493006	346.482
317.2000	-0.402707	346.301
317.1000	-0.392998	346.11
317.0000	-0.380191	345.875
316.9000	-0.356486	345.681
316.8000	-0.369726	345.501
316.7000	-0.310907	345.327
316.6000	-0.26777	345.152
316.5000	-0.260637	345.011
316.4000	-0.302393	344.853
316.3000	-0.29298	344.693
316.2000	-0.275119	344.539
316.1000	-0.31717	344.421
316.0000	-0.333891	344.302
315.9000	-0.398185	344.144
315.8000	-0.430067	344.038
315.7000	-0.449048	343.872
315.6000	-0.477446	343.728
315.5000	-0.503372	343.569
315.4000	-0.560186	343.468
315.3000	-0.566638	343.286
315.2000	-0.574916	343.099
315.1000	-0.563905	342.933
315.0000	-0.571196	342.777
314.9000	-0.503917	342.617
314.8000	-0.416348	342.482
314.7000	-0.379309	342.326
314.6000	-0.356484	342.169
314.5000	-0.319553	342.024
314.4000	-0.301958	341.916
314.3000	-0.250409	341.784
314.2000	-0.139203	341.652
314.1000	-0.0506117	341.48
314.0000	-0.0942383	341.327
313.9000	-0.120298	341.176
313.8000	-0.198143	341.036
313.7000	-0.279632	340.835
313.6000	-0.279615	340.656
313.5000	-0.254135	340.482
313.4000	-0.267897	340.31
313.3000	-0.386612	340.142
313.2000	-0.429653	340.001
313.1000	-0.432007	339.848
313.0000	-0.360448	339.701
312.9000	-0.269991	339.568
312.8000	-0.307783	339.465
312.7000	-0.338478	339.339
312.6000	-0.328368	339.222
312.5000	-0.383634	339.059
312.4000	-0.428647	338.91
312.3000	-0.513754	338.746
312.2000	-0.580317	338.589
312.1000	-0.633454	338.383
312.0000	-0.603938	338.194
311.9000	-0.595265	338.007
311.8000	-0.640962	337.78
311.7000	-0.609225	337.607
311.6000	-0.550708	337.433
311.5000	-0.484578	337.289
311.4000	-0.43273	337.103
311.3000	-0.403531	336.983
311.2000	-0.408253	336.86
311.1000	-0.411986	336.759
311.0000	-0.387207	336.649
310.9000	-0.401571	336.557
310.8000	-0.45093	336.454
310.7000	-0.471751	336.364
310.6000	-0.458824	336.242
310.5000	-0.431883	336.136
310.4000	-0.377569	336.037
310.3000	-0.347195	335.946
310.2000	-0.340823	335.861
310.1000	-0.349365	335.79
310.0000	-0.370561	335.707
309.9000	-0.362891	335.636
309.8000	-0.420215	335.571
309.7000	-0.505272	335.478
309.6000	-0.609988	335.401
309.5000	-0.597643	335.294
309.4000	-0.548122	335.21
309.3000	-0.541066	335.08
309.2000	-0.514434	334.978
309.1000	-0.474861	334.828
309.0000	-0.402181	334.702
308.9000	-0.321346	334.586
308.8000	-0.253442	334.484
308.7000	-0.252148	334.386
308.6000	-0.288074	334.299
308.5000	-0.311058	334.202
308.4000	-0.357082	334.09
308.3000	-0.341293	334.02
308.2000	-0.406469	333.909
308.1000	-0.480255	333.828
308.0000	-0.549422	333.729
307.9000	-0.62171	333.643
307.8000	-0.669701	333.506
307.7000	-0.662548	333.4
307.6000	-0.616473	333.286
307.5000	-0.614808	333.129
307.4000	-0.581011	333.012
307.3000	-0.464188	332.897
307.2000	-0.391531	332.804
307.1000	-0.330776	332.673
307.0000	-0.303017	332.582
306.9000	-0.312006	332.494
306.8000	-0.339761	332.437
306.7000	-0.383301	332.37
306.6000	-0.410926	332.288
306.5000	-0.436036	332.216
306.4000	-0.482779	332.094
306.3000	-0.518158	332.006
306.2000	-0.512632	331.896
306.1000	-0.539507	331.797
306.0000	-0.542773	331.656
305.9000	-0.498064	331.559
305.8000	-0.487819	331.482
305.7000	-0.465844	331.369
305.6000	-0.436831	331.294
305.5000	-0.372553	331.221
305.4000	-0.40454	331.17
305.3000	-0.364737	331.076
305.2000	-0.337777	331.012
305.1000	-0.305793	330.934
305.0000	-0.281976	330.814
304.9000	-0.305468	330.732
304.8000	-0.345394	330.629
304.7000	-0.421301	330.538
304.6000	-0.398972	330.416
304.5000	-0.398051	330.317
304.4000	-0.420225	330.234
304.3000	-0.470858	330.123
304.2000	-0.529543	330.062
304.1000	-0.533772	330.005
304.0000	-0.532806	329.97
303.9000	-0.539145	329.889
303.8000	-0.566168	329.814
303.7000	-0.625144	329.762
303.6000	-0.668218	329.666
303.5000	-0.659444	329.606
303.4000	-0.59402	329.529
303.3000	-0.572629	329.426
303.2000	-0.539559	329.326
303.1000	-0.554211	329.247
303.0000	-0.599296	329.198
302.9000	-0.577569	329.111
302.8000	-0.502805	329.041
302.7000	-0.431541	328.985
302.6000	-0.485908	328.898
302.5000	-0.574567	328.844
302.4000	-0.634531	328.785
302.3000	-0.736057	328.69
302.2000	-0.714943	328.605
302.1000	-0.691252	328.52
302.0000	-0.697664	328.462
301.9000	-0.788885	328.374
301.8000	-0.792333	328.301
301.7000	-0.69601	328.252
301.6000	-0.645756	328.166
301.5000	-0.557593	328.119
301.4000	-0.435395	328.072
301.3000	-0.395902	327.997
301.2000	-0.377429	327.931
301.1000	-0.370165	327.867
301.0000	-0.393131	327.831
300.9000	-0.435417	327.755
300.8000	-0.460638	327.677
300.7000	-0.469322	327.616
300.6000	-0.52378	327.533
300.5000	-0.546224	327.471
300.4000	-0.56039	327.427
300.3000	-0.525163	327.36
300.2000	-0.483036	327.296
300.1000	-0.458536	327.241
300.0000	-0.41533	327.18
299.9000	-0.418767	327.128
299.8000	-0.344656	327.082
299.7000	-0.340373	327.015
299.6000	-0.355766	326.953
299.5000	-0.36689	326.89
299.4000	-0.422441	326.839
299.3000	-0.450493	326.775
299.2000	-0.42167	326.729
299.1000	-0.409388	326.697
299.0000	-0.402652	326.637
298.9000	-0.444918	326.594
298.8000	-0.461719	326.562
298.7000	-0.496891	326.509
298.6000	-0.513291	326.464
298.5000	-0.546748	326.416
298.4000	-0.587571	326.355
298.3000	-0.571712	326.3
298.2000	-0.534047	326.247
298.1000	-0.536883	326.19
298.0000	-0.537521	326.138
297.9000	-0.537193	326.096
297.8000	-0.528654	326.029
297.7000	-0.504872	325.976
297.6000	-0.44237	325.94
297.5000	-0.448169	325.877
297.4000	-0.543044	325.827
297.3000	-0.627299	325.784
297.2000	-0.643214	325.719
297.1000	-0.640396	325.666
297.0000	-0.658382	325.621
296.9000	-0.662115	325.557
296.8000	-0.6987	325.506
296.7000	-0.735297	325.469
296.6000	-0.72605	325.441
296.5000	-0.649213	325.398
296.4000	-0.644023	325.361
296.3000	-0.646324	325.336
296.2000	-0.628539	325.294
296.1000	-0.588944	325.263
296.0000	-0.538258	325.24
295.9000	-0.494779	325.195
295.8000	-0.484554	325.129
295.7000	-0.567625	325.088
295.6000	-0.614681	325.047
295.5000	-0.627111	324.991
295.4000	-0.631203	324.923
295.3000	-0.638353	324.881
295.2000	-0.688996	324.825
295.1000	-0.712448	324.765
295.0000	-0.743966	324.731
294.9000	-0.728308	324.684
294.8000	-0.716789	324.622
294.7000	-0.671891	324.585
294.6000	-0.636376	324.556
294.5000	-0.651807	324.513
294.4000	-0.630412	324.484
294.3000	-0.632298	324.456
294.2000	-0.686238	324.409
294.1000	-0.678251	324.377
294.0000	-0.654514	324.35
293.9000	-0.643945	324.303
293.8000	-0.659088	324.272
293.7000	-0.662563	324.244
293.6000	-0.659097	324.191
293.5000	-0.707299	324.127
293.4000	-0.684189	324.095
293.3000	-0.652336	324.049
293.2000	-0.654365	323.995
293.1000	-0.678866	323.97
293.0000	-0.72901	323.925
292.9000	-0.714753	323.873
292.8000	-0.689846	323.849
292.7000	-0.621836	323.828
292.6000	-0.583893	323.788
292.5000	-0.57277	323.737
292.4000	-0.618655	323.709
292.3000	-0.592349	323.666
292.2000	-0.535448	323.619
292.1000	-0.49759	323.597
292.0000	-0.501832	323.558
291.9000	-0.518447	323.51
291.8000	-0.490647	323.467
291.7000	-0.497874	323.448
291.6000	-0.472643	323.409
291.5000	-0.431488	323.365
291.4000	-0.477293	323.339
291.3000	-0.530134	323.289
291.2000	-0.633806	323.222
291.1000	-0.635898	323.16
291.0000	-0.66475	323.115
290.9000	-0.660592	323.049
290.8000	-0.651669	322.967
290.7000	-0.69589	322.879
290.6000	-0.70444	322.78
290.5000	-0.656818	322.665
290.4000	-0.58	322.545
290.3000	-0.531102	322.437
290.2000	-0.520327	322.306
290.1000	-0.479121	322.162
290.0000	-0.453047	322.031
289.9000	-0.449954	321.933
289.8000	-0.422662	321.844
289.7000	-0.415174	321.779
289.6000	-0.437173	321.746
289.5000	-0.483811	321.751
289.4000	-0.544012	321.777
289.3000	-0.58262	321.835
289.2000	-0.61013	321.914
289.1000	-0.585816	322.018
289.0000	-0.571918	322.118
288.9000	-0.583581	322.214
288.8000	-0.601277	322.303
288.7000	-0.539139	322.383
288.6000	-0.50551	322.443
288.5000	-0.45461	322.489
288.4000	-0.42487	322.52
288.3000	-0.435436	322.538
288.2000	-0.448078	322.535
288.1000	-0.460908	322.523
288.0000	-0.485175	322.5
287.9000	-0.533176	322.463
287.8000	-0.509312	322.442
287.7000	-0.487024	322.417
287.6000	-0.53781	322.391
287.5000	-0.643122	322.35
287.4000	-0.721213	322.329
287.3000	-0.76759	322.315
287.2000	-0.806702	322.296
287.1000	-0.841978	322.284
287.0000	-0.909784	322.245
286.9000	-0.974828	322.224
286.8000	-0.967733	322.21
286.7000	-0.933698	322.196
286.6000	-0.842861	322.174
286.5000	-0.783991	322.164
286.4000	-0.719553	322.161
286.3000	-0.645693	322.161
286.2000	-0.541756	322.162
286.1000	-0.513633	322.153
286.0000	-0.558127	322.154
285.9000	-0.605317	322.145
285.8000	-0.591198	322.141
285.7000	-0.593588	322.117
285.6000	-0.586099	322.093
285.5000	-0.597574	322.089
285.4000	-0.617539	322.084
285.3000	-0.582697	322.088
285.2000	-0.52992	322.064
285.1000	-0.505381	322.049
285.0000	-0.513762	322.055
284.9000	-0.50036	322.052
284.8000	-0.473388	322.057
284.7000	-0.505117	322.036
284.6000	-0.565628	322.019
284.5000	-0.652535	322.019
284.4000	-0.701878	322.02
284.3000	-0.669178	322.034
284.2000	-0.615145	322.018
284.1000	-0.660002	322.01
284.0000	-0.69845	321.99
283.9000	-0.650904	321.991
283.8000	-0.579345	322.002
283.7000	-0.535036	321.991
283.6000	-0.559108	321.982
283.5000	-0.63541	321.964
283.4000	-0.686815	321.956
283.3000	-0.668307	321.969
283.2000	-0.676116	321.981
283.1000	-0.705838	321.99
283.0000	-0.734456	321.981
282.9000	-0.749189	321.977
282.8000	-0.706457	321.974
282.7000	-0.67447	321.989
282.6000	-0.57851	322.007
282.5000	-0.53256	322.011
282.4000	-0.514828	322.007
282.3000	-0.513551	322.002
282.2000	-0.461262	322.003
282.1000	-0.406238	322.022
282.0000	-0.379588	322.036
281.9000	-0.374615	322.04
281.8000	-0.417529	322.035
281.7000	-0.496551	322.026
281.6000	-0.560296	322.021
281.5000	-0.581319	322.018
281.4000	-0.649988	322.031
281.3000	-0.73848	322.034
281.2000	-0.829961	322.031
281.1000	-0.844487	322.028
281.0000	-0.842801	322.025
280.9000	-0.856929	322.021
280.8000	-0.87527	322.015
280.7000	-0.869208	322.015
280.6000	-0.846182	322.023
280.5000	-0.804421	322.021
280.4000	-0.734124	322.019
280.3000	-0.710848	322.012
280.2000	-0.688024	322.004
280.1000	-0.650506	321.997
280.0000	-0.618385	321.991
279.9000	-0.609621	321.984
279.8000	-0.633431	321.96
279.7000	-0.682808	321.947
279.6000	-0.686371	321.939
279.5000	-0.703488	321.93
279.4000	-0.719944	321.925
279.3000	-0.74945	321.922
279.2000	-0.780098	321.921
279.1000	-0.781176	321.923
279.0000	-0.746856	321.927
278.9000	-0.753151	321.924
278.8000	-0.780815	321.933
278.7000	-0.785234	321.947
278.6000	-0.764278	321.961
278.5000	-0.778374	321.976
278.4000	-0.785363	321.988
278.3000	-0.751587	322.002
278.2000	-0.751952	322.014
278.1000	-0.705537	322.026
278.0000	-0.633916	322.024
277.9000	-0.599694	322.016
277.8000	-0.601604	322.007
277.7000	-0.532352	322.005
277.6000	-0.479607	322.018
277.5000	-0.457614	322.026
277.4000	-0.428847	322.035
277.3000	-0.411472	322.047
277.2000	-0.383486	322.062
277.1000	-0.390622	322.08
277.0000	-0.397392	322.098
276.9000	-0.464582	322.112
276.8000	-0.515748	322.112
276.7000	-0.468805	322.113
276.6000	-0.441825	322.117
276.5000	-0.462138	322.121
276.4000	-0.487465	322.12
276.3000	-0.478461	322.119
276.2000	-0.473993	322.114
276.1000	-0.41011	322.118
276.0000	-0.332256	322.142
275.9000	-0.31481	322.163
275.8000	-0.368642	322.181
275.7000	-0.428913	322.195
275.6000	-0.461789	322.214
275.5000	-0.463645	322.238
275.4000	-0.43446	322.266
275.3000	-0.455568	322.291
275.2000	-0.464688	322.302
275.1000	-0.452579	322.314
275.0000	-0.372578	322.326
274.9000	-0.277263	322.337
274.8000	-0.175822	322.347
274.7000	-0.13158	322.358
274.6000	-0.121542	322.368
274.5000	-0.101497	322.381
274.4000	-0.0942873	322.395
274.3000	-0.133271	322.407
274.2000	-0.190051	322.412
274.1000	-0.249962	322.422
274.0000	-0.297222	322.43
273.9000	-0.361783	322.436
273.8000	-0.419453	322.442
273.7000	-0.476404	322.453
273.6000	-0.503958	322.461
273.5000	-0.423512	322.474
273.4000	-0.37996	322.487
273.3000	-0.392443	322.503
273.2000	-0.386234	322.52
273.1000	-0.419425	322.538
273.0000	-0.370317	322.556
272.9000	-0.328877	322.57
272.8000	-0.340082	322.58
272.7000	-0.410137	322.592
272.6000	-0.474606	322.603
272.5000	-0.501395	322.614
272.4000	-0.469809	322.627
272.3000	-0.416407	322.64
272.2000	-0.387599	322.656
272.1000	-0.414092	322.671
272.0000	-0.375692	322.688
271.9000	-0.356536	322.704
271.8000	-0.355371	322.721
271.7000	-0.350622	322.737
271.6000	-0.343494	322.755
271.5000	-0.382439	322.774
271.4000	-0.45721	322.791
271.3000	-0.49446	322.811
271.2000	-0.550878	322.825
271.1000	-0.56483	322.838
271.0000	-0.565496	322.848
270.9000	-0.591965	322.843
270.8000	-0.625594	322.836
270.7000	-0.623749	322.827
270.6000	-0.62898	322.812
270.5000	-0.594666	322.792
270.4000	-0.524822	322.775
270.3000	-0.533221	322.752
270.2000	-0.556145	322.731
270.1000	-0.560573	322.723
270.0000	-0.553477	322.725
269.9000	-0.541637	322.728
269.8000	-0.525272	322.733
269.7000	-0.510728	322.742
269.6000	-0.515153	322.759
269.5000	-0.517312	322.779
269.4000	-0.496348	322.788
269.3000	-0.469743	322.803
269.2000	-0.495913	322.819
269.1000	-0.536969	322.842
269.0000	-0.532356	322.868
268.9000	-0.533859	322.903
268.8000	-0.520546	322.933
268.7000	-0.458107	322.973
268.6000	-0.420684	323.023
268.5000	-0.412677	323.082
268.4000	-0.364582	323.138
268.3000	-0.311769	323.175
268.2000	-0.297379	323.21
268.1000	-0.263877	323.238
268.0000	-0.293357	323.273
267.9000	-0.33899	323.304
267.8000	-0.355515	323.337
267.7000	-0.359366	323.365
267.6000	-0.384483	323.399
267.5000	-0.441355	323.439
267.4000	-0.466549	323.475
267.3000	-0.491219	323.521
267.2000	-0.49263	323.56
267.1000	-0.470135	323.608
267.0000	-0.460601	323.655
266.9000	-0.429441	323.713
266.8000	-0.347632	323.761
266.7000	-0.290688	323.797
266.6000	-0.283659	323.844
266.5000	-0.302185	323.887
266.4000	-0.293937	323.934
266.3000	-0.304742	323.979
266.2000	-0.285732	324.03
266.1000	-0.310532	324.069
266.0000	-0.357307	324.096
265.9000	-0.430298	324.139
265.8000	-0.403964	324.19
265.7000	-0.364035	324.252
265.6000	-0.366836	324.318
265.5000	-0.402996	324.375
265.4000	-0.416648	324.412
265.3000	-0.454303	324.445
265.2000	-0.454715	324.5
265.1000	-0.434848	324.561
265.0000	-0.429456	324.622
264.9000	-0.474646	324.681
264.8000	-0.506783	324.719
264.7000	-0.476245	324.767
264.6000	-0.457785	324.83
264.5000	-0.476504	324.909
264.4000	-0.486935	324.991
264.3000	-0.50473	325.057
264.2000	-0.519414	325.124
264.1000	-0.488212	325.181
264.0000	-0.493729	325.239
263.9000	-0.525854	325.3
263.8000	-0.572614	325.347
263.7000	-0.590428	325.385
263.6000	-0.621275	325.422
263.5000	-0.632168	325.466
263.4000	-0.655733	325.513
263.3000	-0.6738	325.556
263.2000	-0.667562	325.616
263.1000	-0.645862	325.686
263.0000	-0.646128	325.765
262.9000	-0.645255	325.847
262.8000	-0.62876	325.938
262.7000	-0.627177	326.027
262.6000	-0.620736	326.112
262.5000	-0.608936	326.204
262.4000	-0.542973	326.285
262.3000	-0.47186	326.367
262.2000	-0.422374	326.445
262.1000	-0.413383	326.528
262.0000	-0.415434	326.592
261.9000	-0.357275	326.665
261.8000	-0.29372	326.75
261.7000	-0.264704	326.826
261.6000	-0.272044	326.903
261.5000	-0.338204	326.987
261.4000	-0.344229	327.074
261.3000	-0.308757	327.159
261.2000	-0.273283	327.255
261.1000	-0.278733	327.351
261.0000	-0.292697	327.444
260.9000	-0.335157	327.531
260.8000	-0.381503	327.624
260.7000	-0.40657	327.716
260.6000	-0.451861	327.793
260.5000	-0.510909	327.869
260.4000	-0.557376	327.955
260.3000	-0.579003	328.047
260.2000	-0.608909	328.117
260.1000	-0.590952	328.185
260.0000	-0.544509	328.256
259.9000	-0.534369	328.308
259.8000	-0.521524	328.375
259.7000	-0.538317	328.447
259.6000	-0.569419	328.503
259.5000	-0.58509	328.55
259.4000	-0.590859	328.609
259.3000	-0.5815	328.678
259.2000	-0.579207	328.765
259.1000	-0.50987	328.867
259.0000	-0.427544	328.956
258.9000	-0.353419	329.036
258.8000	-0.254292	329.128
258.7000	-0.188366	329.213
258.6000	-0.151734	329.296
258.5000	-0.145346	329.378
258.4000	-0.0968791	329.443
258.3000	-0.0480639	329.507
258.2000	-0.0719467	329.584
258.1000	-0.0830131	329.659
258.0000	-0.0861572	329.736
257.9000	-0.0612393	329.821
257.8000	-0.088243	329.894
257.7000	-0.100078	329.969
257.6000	-0.168646	330.051
257.5000	-0.245218	330.126
257.4000	-0.263321	330.213
257.3000	-0.308294	330.301
257.2000	-0.334107	330.391
257.1000	-0.347035	330.478
257.0000	-0.344018	330.558
256.9000	-0.320341	330.647
256.8000	-0.314793	330.733
256.7000	-0.30492	330.837
256.6000	-0.281169	330.938
256.5000	-0.265655	331.018
256.4000	-0.238004	331.101
256.3000	-0.250527	331.174
256.2000	-0.267742	331.258
256.1000	-0.220515	331.354
256.0000	-0.181311	331.444
255.9000	-0.167715	331.529
255.8000	-0.210736	331.591
255.7000	-0.185257	331.671
255.6000	-0.151156	331.765
255.5000	-0.086881	331.854
255.4000	-0.0430565	331.949
255.3000	-0.049466	332.035
255.2000	-0.00933	332.129
255.1000	0.0541255	332.219
255.0000	0.0825223	332.315
254.9000	0.0675181	332.4
254.8000	0.011775	332.471
254.7000	-0.0243026	332.553
254.6000	-0.0583407	332.63
254.5000	-0.0182963	332.713
254.4000	-0.0664273	332.782
254.3000	-0.168305	332.854
254.2000	-0.250078	332.927
254.1000	-0.324592	333.011
254.0000	-0.400206	333.099
253.9000	-0.400343	333.193
253.8000	-0.39185	333.279
253.7000	-0.453403	333.361
253.6000	-0.477711	333.441
253.5000	-0.470423	333.527
253.4000	-0.484589	333.603
253.3000	-0.420137	333.675
253.2000	-0.307577	333.741
253.1000	-0.260246	333.807
253.0000	-0.270124	333.868
252.9000	-0.244924	333.931
252.8000	-0.232572	333.994
252.7000	-0.216804	334.061
252.6000	-0.209348	334.127
252.5000	-0.202975	334.2
252.4000	-0.255075	334.272
252.3000	-0.280748	334.349
252.2000	-0.260031	334.423
252.1000	-0.236746	334.508
252.0000	-0.245957	334.591
251.9000	-0.277497	334.668
251.8000	-0.274313	334.751
251.7000	-0.19224	334.836
251.6000	-0.186335	334.928
251.5000	-0.191176	335.014
251.4000	-0.236035	335.108
251.3000	-0.269332	335.195
251.2000	-0.311705	335.28
251.1000	-0.35166	335.382
251.0000	-0.305557	335.476
250.9000	-0.366811	335.571
250.8000	-0.393281	335.661
250.7000	-0.368071	335.765
250.6000	-0.324601	335.861
250.5000	-0.407643	335.946
250.4000	-0.440363	336.048
250.3000	-0.413085	336.138
250.2000	-0.402511	336.235
250.1000	-0.376067	336.327
250.0000	-0.367974	336.414
249.9000	-0.358423	336.5
249.8000	-0.387801	336.578
249.7000	-0.31481	336.669
249.6000	-0.270875	336.743
249.5000	-0.302956	336.814
249.4000	-0.33024	336.892
249.3000	-0.401146	336.974
249.2000	-0.382714	337.058
249.1000	-0.40611	337.145
249.0000	-0.410157	337.233
248.9000	-0.408021	337.32
248.8000	-0.444317	337.413
248.7000	-0.369508	337.512
248.6000	-0.324118	337.603
248.5000	-0.246826	337.697
248.4000	-0.212368	337.781
248.3000	-0.308447	337.855
248.2000	-0.309825	337.935
248.1000	-0.298278	338.008
248.0000	-0.33	338.075
247.9000	-0.370437	338.15
247.8000	-0.437999	338.224
247.7000	-0.468436	338.29
247.6000	-0.530019	338.359
247.5000	-0.566051	338.43
247.4000	-0.567828	338.498
247.3000	-0.616814	338.569
247.2000	-0.626174	338.656
247.1000	-0.574367	338.737
247.0000	-0.515154	338.814
246.9000	-0.515194	338.899
246.8000	-0.489318	338.979
246.7000	-0.436196	339.064
246.6000	-0.363854	339.149
246.5000	-0.355302	339.235
246.4000	-0.368227	339.309
246.3000	-0.373308	339.376
246.2000	-0.392194	339.446
246.1000	-0.393367	339.515
246.0000	-0.390116	339.581
245.9000	-0.342224	339.658
245.8000	-0.289898	339.74
245.7000	-0.27626	339.833
245.6000	-0.222449	339.927
245.5000	-0.17967	340.026
245.4000	-0.173004	340.128
245.3000	-0.181195	340.223
245.2000	-0.180103	340.331
245.1000	-0.176178	340.439
245.0000	-0.124928	340.547
244.9000	-0.17622	340.638
244.8000	-0.237887	340.721
244.7000	-0.31872	340.81
244.6000	-0.263706	340.902
244.5000	-0.220344	340.998
244.4000	-0.259664	341.087
244.3000	-0.281841	341.177
244.2000	-0.39827	341.263
244.1000	-0.404695	341.359
244.0000	-0.416861	341.455
243.9000	-0.360659	341.556
243.8000	-0.372846	341.653
243.7000	-0.391999	341.753
243.6000	-0.358732	341.849
243.5000	-0.383648	341.944
243.4000	-0.343927	342.046
243.3000	-0.318366	342.142
243.2000	-0.277932	342.238
243.1000	-0.263002	342.338
243.0000	-0.248578	342.442
242.9000	-0.272596	342.552
242.8000	-0.32419	342.666
242.7000	-0.389084	342.781
242.6000	-0.378448	342.89
242.5000	-0.43449	342.99
242.4000	-0.445093	343.097
242.3000	-0.448401	343.207
242.2000	-0.470126	343.317
242.1000	-0.422385	343.418
242.0000	-0.335907	343.513
241.9000	-0.281141	343.603
241.8000	-0.259032	343.694
241.7000	-0.237636	343.793
241.6000	-0.189203	343.895
241.5000	-0.153758	344
241.4000	-0.142447	344.107
241.3000	-0.101588	344.216
241.2000	-0.101843	344.327
241.1000	-0.0916844	344.441
241.0000	-0.0771059	344.565
240.9000	-0.112617	344.691
240.8000	-0.228417	344.812
240.7000	-0.30751	344.934
240.6000	-0.361803	345.053
240.5000	-0.431205	345.169
240.4000	-0.515298	345.283
240.3000	-0.570247	345.41
240.2000	-0.616928	345.53
240.1000	-0.653934	345.644
240.0000	-0.646655	345.762
239.9000	-0.524293	345.884
239.8000	-0.497553	346.007
239.7000	-0.414567	346.135
239.6000	-0.364196	346.266
239.5000	-0.364542	346.399
239.4000	-0.309684	346.537
239.3000	-0.266542	346.678
239.2000	-0.181119	346.823
239.1000	-0.179031	346.971
239.0000	-0.207894	347.114
238.9000	-0.313684	347.253
238.8000	-0.329619	347.397
238.7000	-0.24991	347.546
238.6000	-0.221583	347.684
238.5000	-0.257341	347.821
238.4000	-0.307974	347.966
238.3000	-0.349581	348.108
238.2000	-0.339331	348.257
238.1000	-0.329503	348.401
238.0000	-0.327633	348.546
237.9000	-0.474447	348.687
237.8000	-0.49766	348.826
237.7000	-0.495001	348.972
237.6000	-0.459813	349.124
237.5000	-0.456841	349.277
237.4000	-0.478073	349.427
237.3000	-0.431774	349.583
237.2000	-0.415481	349.746
237.1000	-0.403714	349.899
237.0000	-0.380625	350.056
236.9000	-0.480425	350.211
236.8000	-0.565121	350.361
236.7000	-0.588077	350.511
236.6000	-0.604152	350.653
236.5000	-0.567703	350.802
236.4000	-0.60159	350.951
236.3000	-0.566148	351.107
236.2000	-0.577062	351.264
236.1000	-0.506004	351.422
236.0000	-0.47818	351.58
235.9000	-0.404505	351.743
235.8000	-0.43238	351.917
235.7000	-0.565663	352.085
235.6000	-0.61832	352.255
235.5000	-0.734609	352.42
235.4000	-0.812174	352.59
235.3000	-0.874577	352.763
235.2000	-0.917131	352.94
235.1000	-0.984305	353.115
235.0000	-1.03333	353.283
234.9000	-0.983663	353.45
234.8000	-0.912134	353.62
234.7000	-0.857398	353.792
234.6000	-0.832082	353.958
234.5000	-0.843491	354.129
234.4000	-0.821335	354.308
234.3000	-0.791351	354.48
234.2000	-0.728826	354.654
234.1000	-0.708385	354.829
234.0000	-0.723343	355.001
233.9000	-0.742648	355.179
233.8000	-0.687951	355.366
233.7000	-0.615786	355.544
233.6000	-0.61461	355.715
233.5000	-0.612601	355.889
233.4000	-0.604585	356.06
233.3000	-0.622277	356.236
233.2000	-0.648625	356.421
233.1000	-0.703059	356.598
233.0000	-0.820307	356.772
232.9000	-0.918151	356.948
232.8000	-0.959969	357.138
232.7000	-0.974993	357.334
232.6000	-0.983832	357.533
232.5000	-0.960932	357.737
232.4000	-1.06539	357.926
232.3000	-1.10334	358.122
232.2000	-1.12635	358.313
232.1000	-1.0346	358.509
232.0000	-0.956711	358.702
231.9000	-0.899935	358.891
231.8000	-0.875511	359.071
231.7000	-0.988774	359.247
231.6000	-0.975643	359.429
231.5000	-0.88418	359.608
231.4000	-0.757312	359.795
231.3000	-0.75423	359.978
231.2000	-0.908429	360.157
231.1000	-1.06955	360.329
231.0000	-1.11401	360.506
230.9000	-1.16247	360.686
230.8000	-1.12373	360.863
230.7000	-1.13522	361.051
230.6000	-1.24119	361.233
230.5000	-1.31788	361.422
230.4000	-1.28559	361.616
230.3000	-1.22576	361.819
230.2000	-1.28241	362.02
230.1000	-1.25534	362.23
230.0000	-1.25632	362.438
229.9000	-1.33476	362.636
229.8000	-1.42839	362.838
229.7000	-1.43302	363.033
229.6000	-1.42834	363.225
229.5000	-1.38094	363.412
229.4000	-1.27232	363.595
229.3000	-1.33114	363.766
229.2000	-1.38341	363.929
229.1000	-1.40038	364.096
229.0000	-1.39991	364.262
228.9000	-1.31415	364.432
228.8000	-1.25812	364.608
228.7000	-1.26242	364.792
228.6000	-1.30734	364.98
228.5000	-1.27831	365.181
228.4000	-1.18998	365.402
228.3000	-1.14739	365.63
228.2000	-1.06053	365.857
228.1000	-1.0957	366.088
228.0000	-1.18714	366.322
227.9000	-1.30029	366.549
227.8000	-1.3118	366.778
227.7000	-1.3421	367.011
227.6000	-1.38859	367.235
227.5000	-1.48315	367.45
227.4000	-1.58498	367.665
227.3000	-1.64173	367.885
227.2000	-1.63354	368.098
227.1000	-1.55401	368.313
227.0000	-1.58171	368.521
226.9000	-1.63466	368.718
226.8000	-1.69052	368.919
226.7000	-1.69873	369.123
226.6000	-1.59648	369.333
226.5000	-1.5257	369.538
226.4000	-1.49281	369.739
226.3000	-1.5653	369.935
226.2000	-1.61928	370.139
226.1000	-1.6427	370.348
226.0000	-1.68418	370.554
225.9000	-1.73539	370.757
225.8000	-1.79133	370.954
225.7000	-1.87021	371.149
225.6000	-1.85084	371.353
225.5000	-1.84931	371.559
225.4000	-1.78759	371.762
225.3000	-1.63766	371.971
225.2000	-1.54665	372.177
225.1000	-1.42255	372.383
225.0000	-1.26673	372.592
224.9000	-1.28962	372.802
224.8000	-1.28181	373.01
224.7000	-1.3747	373.212
224.6000	-1.38181	373.419
224.5000	-1.55604	373.619
224.4000	-1.57194	373.821
224.3000	-1.58315	374.027
224.2000	-1.61837	374.235
224.1000	-1.57002	374.446
224.0000	-1.47646	374.659
223.9000	-1.37834	374.871
223.8000	-1.33638	375.08
223.7000	-1.24476	375.291
223.6000	-1.2359	375.5
223.5000	-1.2785	375.709
223.4000	-1.3116	375.916
223.3000	-1.36487	376.114
223.2000	-1.42743	376.31
223.1000	-1.52603	376.509
223.0000	-1.48036	376.715
222.9000	-1.48496	376.919
222.8000	-1.49166	377.121
222.7000	-1.52604	377.321
222.6000	-1.50223	377.523
222.5000	-1.30557	377.734
222.4000	-1.33128	377.933
222.3000	-1.30181	378.133
222.2000	-1.36116	378.332
222.1000	-1.45548	378.53
222.0000	-1.49648	378.731
221.9000	-1.52249	378.925
221.8000	-1.62609	379.118
221.7000	-1.72543	379.314
221.6000	-1.72762	379.517
221.5000	-1.69266	379.727
221.4000	-1.60679	379.932
221.3000	-1.42311	380.141
221.2000	-1.3336	380.348
221.1000	-1.37894	380.554
221.0000	-1.32446	380.761
220.9000	-1.35825	380.965
220.8000	-1.48362	381.169
220.7000	-1.49458	381.37
220.6000	-1.48233	381.576
220.5000	-1.56127	381.78
220.4000	-1.68463	381.977
220.3000	-1.71953	382.182
220.2000	-1.8114	382.393
220.1000	-1.88655	382.601
220.0000	-1.98478	382.807
219.9000	-2.11353	383.015
219.8000	-2.20237	383.224
219.7000	-2.28556	383.431
219.6000	-2.23783	383.643
219.5000	-2.19033	383.856
219.4000	-2.07437	384.072
219.3000	-1.93692	384.286
219.2000	-1.80308	384.503
219.1000	-1.70475	384.716
219.0000	-1.56841	384.933
218.9000	-1.52268	385.144
218.8000	-1.60833	385.355
218.7000	-1.68605	385.564
218.6000	-1.69153	385.773
218.5000	-1.60818	385.982
218.4000	-1.5753	386.194
218.3000	-1.47855	386.403
218.2000	-1.5391	386.609
218.1000	-1.64792	386.814
218.0000	-1.65113	387.027
217.9000	-1.67346	387.237
217.8000	-1.7553	387.44
217.7000	-1.79143	387.65
217.6000	-1.88649	387.853
217.5000	-1.89795	388.068
217.4000	-1.92153	388.277
217.3000	-1.95955	388.486
217.2000	-1.97626	388.697
217.1000	-2.02032	388.905
217.0000	-1.92899	389.119
216.9000	-1.87771	389.331
216.8000	-1.8305	389.541
216.7000	-1.97479	389.742
216.6000	-2.08514	389.952
216.5000	-2.04525	390.168
216.4000	-1.94037	390.38
216.3000	-1.90851	390.588
216.2000	-1.84083	390.808
216.1000	-1.81896	391.028
216.0000	-1.84902	391.247
215.9000	-1.87037	391.465
215.8000	-1.78692	391.683
215.7000	-1.70064	391.906
215.6000	-1.80622	392.125
215.5000	-1.81487	392.349
215.4000	-1.85133	392.567
215.3000	-1.95607	392.782
215.2000	-2.11832	392.994
215.1000	-2.08613	393.221
215.0000	-2.09132	393.45
214.9000	-2.10935	393.676
214.8000	-1.93851	393.907
214.7000	-1.84796	394.139
214.6000	-1.7136	394.371
214.5000	-1.64065	394.603
214.4000	-1.53907	394.838
214.3000	-1.66126	395.064
214.2000	-1.65	395.29
214.1000	-1.67652	395.515
214.0000	-1.7461	395.74
213.9000	-1.91852	395.964
213.8000	-2.19454	396.189
213.7000	-2.31567	396.419
213.6000	-2.29629	396.653
213.5000	-2.1751	396.896
213.4000	-2.12294	397.137
213.3000	-2.0981	397.385
213.2000	-2.04814	397.633
213.1000	-1.92091	397.884
213.0000	-1.6914	398.14
212.9000	-1.44041	398.398
212.8000	-1.24395	398.651
212.7000	-1.25307	398.895
212.6000	-1.20933	399.144
212.5000	-1.19337	399.392
212.4000	-1.21585	399.639
212.3000	-1.28486	399.883
212.2000	-1.27004	400.13
212.1000	-1.3075	400.379
212.0000	-1.54723	400.629
211.9000	-1.59835	400.891
211.8000	-1.56542	401.152
211.7000	-1.55024	401.415
211.6000	-1.46091	401.683
211.5000	-1.39939	401.949
211.4000	-1.43271	402.218
211.3000	-1.49516	402.488
211.2000	-1.51948	402.753
211.1000	-1.58747	403.017
211.0000	-1.7219	403.287
210.9000	-1.67382	403.562
210.8000	-1.66145	403.833
210.7000	-1.73015	404.112
210.6000	-1.70934	404.389
210.5000	-1.74994	404.669
210.4000	-1.70129	404.956
210.3000	-1.70681	405.243
210.2000	-1.61176	405.528
210.1000	-1.60829	405.813
210.0000	-1.69099	406.099
209.9000	-1.81077	406.384
209.8000	-1.90695	406.666
209.7000	-1.96713	406.951
209.6000	-1.93744	407.238
209.5000	-1.93474	407.53
209.4000	-1.90689	407.823
209.3000	-2.04397	408.111
209.2000	-2.06675	408.408
209.1000	-1.8661	408.71
209.0000	-1.70763	409.013
208.9000	-1.59932	409.322
208.8000	-1.61113	409.624
208.7000	-1.64557	409.924
208.6000	-1.79641	410.227
208.5000	-1.83217	410.537
208.4000	-1.69037	410.852
208.3000	-1.70603	411.166
208.2000	-1.76387	411.481
208.1000	-1.77461	411.798
208.0000	-1.7748	412.112
207.9000	-1.64272	412.437
207.8000	-1.53288	412.761
207.7000	-1.30413	413.088
207.6000	-1.32269	413.407
207.5000	-1.36402	413.721
207.4000	-1.4184	414.033
207.3000	-1.35804	414.351
207.2000	-1.36311	414.666
207.1000	-1.38886	414.979
207.0000	-1.34319	415.294
206.9000	-1.3541	415.606
206.8000	-1.31179	415.921
206.7000	-1.20503	416.242
206.6000	-1.06671	416.562
206.5000	-1.06896	416.881
206.4000	-1.0644	417.202
206.3000	-1.11181	417.527
206.2000	-1.15766	417.851
206.1000	-1.07191	418.177
206.0000	-1.08678	418.501
205.9000	-1.08689	418.826
205.8000	-1.09113	419.154
205.7000	-1.06247	419.486
205.6000	-1.14727	419.815
205.5000	-1.15879	420.149
205.4000	-1.03877	420.487
205.3000	-0.911546	420.83
205.2000	-0.954857	421.174
205.1000	-0.887252	421.524
205.0000	-1.01625	421.867
204.9000	-1.23282	422.208
204.8000	-1.20622	422.561
204.7000	-1.1755	422.919
204.6000	-1.18161	423.276
204.5000	-1.24632	423.633
204.4000	-1.2792	423.988
204.3000	-1.46707	424.34
204.2000	-1.55235	424.699
204.1000	-1.39696	425.069
204.0000	-1.31373	425.437
203.9000	-1.29792	425.802
203.8000	-1.25308	426.171
203.7000	-1.17921	426.544
203.6000	-1.20087	426.92
203.5000	-1.02913	427.304
203.4000	-0.915338	427.689
203.3000	-0.944904	428.076
203.2000	-0.81949	428.473
203.1000	-0.788127	428.868
203.0000	-0.746815	429.267
202.9000	-0.703393	429.671
202.8000	-0.565059	430.076
202.7000	-0.397162	430.486
202.6000	-0.281303	430.895
202.5000	-0.1541	431.304
202.4000	-0.0874205	431.71
202.3000	-0.0688666	432.121
202.2000	0.0317481	432.535
202.1000	0.0825133	432.947
202.0000	0.0993949	433.365
201.9000	-0.0281287	433.788
201.8000	-0.105944	434.22
201.7000	-0.245683	434.652
201.6000	-0.299925	435.095
201.5000	-0.144978	435.547
201.4000	-0.060003	436
201.3000	-0.154438	436.455
201.2000	-0.272	436.913
201.1000	-0.285248	437.377
201.0000	-0.252617	437.842
200.9000	-0.127908	438.318
200.8000	-0.155097	438.796
200.7000	-0.291838	439.277
200.6000	-0.307287	439.773
200.5000	-0.217538	440.284
200.4000	-0.140714	440.806
200.3000	-0.0544479	441.337
200.2000	-0.138377	441.872
200.1000	0.0134237	442.419
200.0000	0.248287	442.974
199.9000	0.340268	443.529
199.8000	0.354435	444.078
199.7000	0.441779	444.625
199.6000	0.75243	445.176
199.5000	1.09411	445.729
199.4000	1.32495	446.282
199.3000	1.22678	446.826
199.2000	1.36627	447.384
199.1000	1.5628	447.948
199.0000	1.62726	448.517
198.9000	1.48595	449.098
198.8000	1.34262	449.693
198.7000	1.24013	450.306
198.6000	1.2611	450.944
198.5000	1.29911	451.602
198.4000	1.09678	452.267
198.3000	0.89494	452.95
198.2000	1.02939	453.662
198.1000	1.1748	454.398
198.0000	1.07616	455.151
197.9000	0.953139	455.919
197.8000	0.846095	456.703
197.7000	0.960872	457.51
197.6000	1.11976	458.342
197.5000	1.24264	459.185
197.4000	1.28286	460.025
197.3000	1.35988	460.865
197.2000	1.71361	461.686
197.1000	1.79589	462.479
197.0000	2.06342	463.26
196.9000	2.17559	464.022
196.8000	2.32477	464.774
196.7000	2.29741	465.524
196.6000	2.16395	466.284
196.5000	2.19096	467.072
196.4000	2.31396	467.915
196.3000	2.57614	468.815
196.2000	2.59364	469.762
196.1000	2.5548	470.764
196.0000	2.46352	471.826
195.9000	2.33295	472.961
195.8000	2.23776	474.181
195.7000	2.20777	475.499
195.6000	1.94031	476.908
195.5000	1.77355	478.427
195.4000	1.70326	480.043
195.3000	1.61461	481.731
195.2000	1.53917	483.473
195.1000	1.936	485.249
195.0000	2.34034	486.987
194.9000	2.57821	488.622
194.8000	2.73609	490.116
194.7000	2.82244	491.448
194.6000	2.81282	492.642
194.5000	2.68773	493.717
194.4000	2.47645	494.706
194.3000	2.28084	495.634
194.2000	2.25992	496.572
194.1000	2.45284	497.596
194.0000	2.55848	498.758
193.9000	2.65908	500.108
193.8000	2.81434	501.659
193.7000	3.2894	503.458
193.6000	3.55488	505.514
193.5000	4.0091	507.872
193.4000	4.35066	510.552
193.3000	4.47953	513.568
193.2000	4.28816	516.885
193.1000	4.48545	520.478
193.0000	4.53622	524.274
192.9000	4.52883	528.188
192.8000	4.38837	532.082
192.7000	4.37592	535.82
192.6000	4.613	539.203
192.5000	4.13346	542.073
192.4000	4.01879	544.446
192.3000	4.02858	546.353
192.2000	4.02278	547.832
192.1000	4.03806	548.953
192.0000	4.28426	549.854
191.9000	4.70272	550.703
191.8000	4.39327	551.713
191.7000	4.95177	553.146
191.6000	5.38711	555.062
191.5000	5.57619	557.496
191.4000	5.75671	560.47
191.3000	6.17776	564.061
191.2000	6.49526	568.299
191.1000	6.50833	573.171
191.0000	6.39883	578.612
190.9000	5.61982	584.502
190.8000	5.15477	590.767
190.7000	5.04682	597.278
190.6000	4.80547	603.849
190.5000	4.50594	610.269
190.4000	4.01863	616.2
190.3000	4.39725	621.46
190.2000	3.92391	625.919
190.1000	4.81142	629.656
190.0000	5.03951	632.709

##### Extended Information
[Comments]
Sample name	ACE2
Comment
User
Division
Company	CSIR-IMTECH

[Detailed Information]
Creation date	4/9/2024 4:05 PM

Data array type	Linear data array * 2
Horizontal axis	Wavelength [nm]
Vertical axis(1)	CD [mdeg]
Vertical axis(2)	HT [V]
Start	350 nm
End	190 nm
Data interval	0.1 nm
Data points	1601    

[Measurement Information]
Instrument Name	JASCO CD
Model Name	J-815
Serial No.	B063061168

Accessory	PTC-423S
Accessory S/N	C013945-01
  Temperature	37.96 C
  Control Sonsor	Cell
  Monitor Sensor	Cell
  Start Mode	Start immediately
  Cell Length	10 mm

Measurement date	4/9/2024 4:05 PM

Photometric Mode	CD, HT
Measure Range	350 - 190 nm
Data pitch	0.1 nm
Sensitivity	Standard
D.I.T.	1 sec
Bandwidth	1.00 nm
Start Mode	Immediately
Scanning Speed	50 nm/min
Baseline Correction	None
Shutter Control	Auto
CD Detector	PMT
PMT Voltage	Auto
Accumulations	3
Concentration	0.27 umol/L

