TITLE	ACE2
DATA TYPE	
ORIGIN	JASCO
OWNER	
DATE	24/04/08
TIME	16:35:18
SPECTROMETER/DATA SYSTEM	
LOCALE	1033
RESOLUTION	
DELTAX	-0.1
XUNITS	NANOMETERS
YUNITS	Mol. Ellip.
Y2UNITS	HT [V]
FIRSTX	  350.0000
LASTX	  190.0000
NPOINTS	    1601
FIRSTY	-4908648.00000
MAXY	21694992.00000
MINY	-11081850.00000
XYDATA
350.0000	-4.90865E+006	498.835
349.9000	-5.07593E+006	498.228
349.8000	-5.54927E+006	497.326
349.7000	-6.41039E+006	496.403
349.6000	-6.96193E+006	495.733
349.5000	-6.38547E+006	495.161
349.4000	-6.82841E+006	494.277
349.3000	-5.95841E+006	493.669
349.2000	-4.67383E+006	493.162
349.1000	-4.38903E+006	492.329
349.0000	-4.14095E+006	491.703
348.9000	-3.65534E+006	491.162
348.8000	-4.16458E+006	490.321
348.7000	-3.87125E+006	489.47
348.6000	-3.76216E+006	488.859
348.5000	-3.37298E+006	488.329
348.4000	-3.61347E+006	487.448
348.3000	-3.36282E+006	486.793
348.2000	-2.63475E+006	486.227
348.1000	-2.27198E+006	485.36
348.0000	-1.65418E+006	484.698
347.9000	-736163	484.121
347.8000	-768648	483.257
347.7000	-1.35077E+006	482.364
347.6000	-984101	481.738
347.5000	-227756	481.229
347.4000	192195	480.423
347.3000	-611044	479.812
347.2000	-528072	479.302
347.1000	-1.35553E+006	478.546
347.0000	-2.20101E+006	477.99
346.9000	-1.53901E+006	477.529
346.8000	-1.00356E+006	476.798
346.7000	-1.94262E+006	476.036
346.6000	-2.72756E+006	475.476
346.5000	-2.0955E+006	474.736
346.4000	-1.30865E+006	473.98
346.3000	-1.19086E+006	473.384
346.2000	-290751	472.611
346.1000	545716	471.823
346.0000	477126	471.23
345.9000	1.7521E+006	470.721
345.8000	2.68049E+006	469.926
345.7000	2.06777E+006	469.336
345.6000	1.36163E+006	468.835
345.5000	2.12663E+006	468.13
345.4000	2.45268E+006	467.614
345.3000	1.81277E+006	467.17
345.2000	2.0767E+006	466.466
345.1000	1.30263E+006	465.752
345.0000	135694	465.228
344.9000	-230074	464.573
344.8000	-71647.3	463.905
344.7000	-199355	463.385
344.6000	-1.0447E+006	462.694
344.5000	-2.39595E+006	461.976
344.4000	-2.93453E+006	461.448
344.3000	-3.19175E+006	460.781
344.2000	-3.57535E+006	460.099
344.1000	-3.71504E+006	459.583
344.0000	-4.33382E+006	458.905
343.9000	-5.16223E+006	458.218
343.8000	-5.50972E+006	457.723
343.7000	-4.48144E+006	457.32
343.6000	-3.07383E+006	456.696
343.5000	-2.87873E+006	456.234
343.4000	-2.50265E+006	455.844
343.3000	-2.05044E+006	455.205
343.2000	-1.46144E+006	454.742
343.1000	-488835	454.351
343.0000	233063	453.775
342.9000	403240	453.174
342.8000	-529397	452.711
342.7000	-687498	452.088
342.6000	-769693	451.449
342.5000	-1.24744E+006	450.98
342.4000	-1.88893E+006	450.397
342.3000	-2.1964E+006	449.806
342.2000	-2.43928E+006	449.343
342.1000	-2.98802E+006	448.736
342.0000	-2.89623E+006	448.134
341.9000	-3.04913E+006	447.709
341.8000	-3.07162E+006	447.149
341.7000	-2.76577E+006	446.582
341.6000	-1.77208E+006	446.163
341.5000	-2.08649E+006	445.627
341.4000	-2.74913E+006	445.08
341.3000	-2.97585E+006	444.676
341.2000	-3.33977E+006	444.111
341.1000	-3.34348E+006	443.534
341.0000	-3.65311E+006	443.097
340.9000	-3.61087E+006	442.539
340.8000	-3.98478E+006	441.961
340.7000	-3.71919E+006	441.508
340.6000	-3.16628E+006	440.948
340.5000	-2.82585E+006	440.382
340.4000	-2.00256E+006	439.975
340.3000	-1.43502E+006	439.443
340.2000	-824130	438.914
340.1000	-792543	438.532
340.0000	-312793	438.055
339.9000	324300	437.581
339.8000	249116	437.221
339.7000	-14828	436.762
339.6000	-722106	436.293
339.5000	-1.29966E+006	435.966
339.4000	-2.26326E+006	435.503
339.3000	-2.38418E+006	435.019
339.2000	-3.49635E+006	434.488
339.1000	-4.03718E+006	434.01
339.0000	-4.13758E+006	433.52
338.9000	-3.62882E+006	432.954
338.8000	-2.71157E+006	432.433
338.7000	-1.96343E+006	431.904
338.6000	-1.09543E+006	431.34
338.5000	-420029	430.851
338.4000	473246	430.49
338.3000	757672	430.031
338.2000	387553	429.567
338.1000	651989	429.253
338.0000	680278	428.841
337.9000	413847	428.419
337.8000	-177973	428.12
337.7000	-704089	427.724
337.6000	-796265	427.308
337.5000	-442880	426.995
337.4000	-705713	426.589
337.3000	-966406	426.163
337.2000	-1.30069E+006	425.677
337.1000	-1.42945E+006	425.243
337.0000	-981122	424.811
336.9000	-925845	424.335
336.8000	-1.69014E+006	423.913
336.7000	-2.38023E+006	423.499
336.6000	-2.34987E+006	423.045
336.5000	-2.13308E+006	422.635
336.4000	-2.172E+006	422.352
336.3000	-2.53667E+006	421.955
336.2000	-3.16726E+006	421.545
336.1000	-3.5646E+006	421.243
336.0000	-3.26474E+006	420.877
335.9000	-2.78553E+006	420.489
335.8000	-2.35799E+006	420.049
335.7000	-1.76394E+006	419.653
335.6000	-1.52941E+006	419.243
335.5000	-1.54054E+006	418.815
335.4000	-1.09536E+006	418.45
335.3000	-728807	418.087
335.2000	-318799	417.696
335.1000	-48553.4	417.349
335.0000	-110456	417.12
334.9000	-881836	416.797
334.8000	-1.02961E+006	416.465
334.7000	-1.28263E+006	416.098
334.6000	-1.29727E+006	415.781
334.5000	-1.4686E+006	415.447
334.4000	-1.84756E+006	415.05
334.3000	-2.39829E+006	414.677
334.2000	-2.74324E+006	414.288
334.1000	-2.80555E+006	413.856
334.0000	-3.20298E+006	413.471
333.9000	-3.10134E+006	413.189
333.8000	-3.19468E+006	412.834
333.7000	-3.21535E+006	412.474
333.6000	-2.76291E+006	412.091
333.5000	-2.29825E+006	411.767
333.4000	-1.93844E+006	411.441
333.3000	-1.65974E+006	411.103
333.2000	-1.17903E+006	410.818
333.1000	-1.40554E+006	410.521
333.0000	-1.70086E+006	410.197
332.9000	-1.6104E+006	409.903
332.8000	-1.60598E+006	409.56
332.7000	-1.62052E+006	409.249
332.6000	-1.51438E+006	408.926
332.5000	-1.62258E+006	408.574
332.4000	-1.87586E+006	408.26
332.3000	-1.68559E+006	407.947
332.2000	-690384	407.595
332.1000	-233390	407.266
332.0000	-517502	406.922
331.9000	-1.20597E+006	406.628
331.8000	-1.45228E+006	406.342
331.7000	-1.37717E+006	406.018
331.6000	-1.29429E+006	405.719
331.5000	-1.21791E+006	405.3
331.4000	-1.75339E+006	404.96
331.3000	-2.52313E+006	404.659
331.2000	-2.79331E+006	404.324
331.1000	-2.75267E+006	404.022
331.0000	-3.10981E+006	403.71
330.9000	-3.39324E+006	403.389
330.8000	-3.22822E+006	403.112
330.7000	-2.92771E+006	402.801
330.6000	-2.67884E+006	402.529
330.5000	-2.25305E+006	402.262
330.4000	-1.86303E+006	401.975
330.3000	-1.3935E+006	401.733
330.2000	-805749	401.375
330.1000	-455284	401.08
330.0000	-1.01909E+006	400.809
329.9000	-1.67564E+006	400.515
329.8000	-2.42269E+006	400.253
329.7000	-2.53155E+006	399.903
329.6000	-2.53133E+006	399.626
329.5000	-2.49051E+006	399.38
329.4000	-2.69545E+006	399.075
329.3000	-2.90841E+006	398.805
329.2000	-2.63865E+006	398.441
329.1000	-1.96293E+006	398.162
329.0000	-1.66967E+006	397.918
328.9000	-1.55576E+006	397.631
328.8000	-1.47266E+006	397.371
328.7000	-1.32648E+006	397.024
328.6000	-1.19692E+006	396.777
328.5000	-1.28753E+006	396.575
328.4000	-1.18787E+006	396.326
328.3000	-1.57733E+006	396.095
328.2000	-1.58338E+006	395.781
328.1000	-1.77664E+006	395.534
328.0000	-1.79167E+006	395.323
327.9000	-2.29541E+006	395.053
327.8000	-2.9429E+006	394.804
327.7000	-2.86368E+006	394.513
327.6000	-3.03975E+006	394.304
327.5000	-3.31417E+006	394.137
327.4000	-3.58562E+006	393.864
327.3000	-3.59989E+006	393.622
327.2000	-3.73606E+006	393.319
327.1000	-3.78766E+006	393.1
327.0000	-3.20266E+006	392.924
326.9000	-3.08432E+006	392.654
326.8000	-2.9529E+006	392.383
326.7000	-3.12711E+006	392.057
326.6000	-2.7861E+006	391.849
326.5000	-2.14418E+006	391.697
326.4000	-1.90307E+006	391.435
326.3000	-1.65992E+006	391.183
326.2000	-1.79799E+006	390.897
326.1000	-2.00632E+006	390.701
326.0000	-2.04077E+006	390.39
325.9000	-1.9943E+006	390.113
325.8000	-1.41763E+006	389.86
325.7000	-1.68285E+006	389.612
325.6000	-1.95831E+006	389.467
325.5000	-2.3143E+006	389.163
325.4000	-2.66912E+006	388.871
325.3000	-2.9108E+006	388.582
325.2000	-2.97909E+006	388.408
325.1000	-2.6887E+006	388.292
325.0000	-2.92408E+006	388.002
324.9000	-3.09058E+006	387.697
324.8000	-3.00761E+006	387.374
324.7000	-2.5144E+006	387.207
324.6000	-2.24978E+006	387.118
324.5000	-2.12348E+006	386.843
324.4000	-1.96054E+006	386.568
324.3000	-1.86148E+006	386.309
324.2000	-1.71355E+006	386.168
324.1000	-1.70346E+006	385.901
324.0000	-1.94973E+006	385.63
323.9000	-2.2988E+006	385.353
323.8000	-2.38444E+006	385.105
323.7000	-2.02657E+006	384.987
323.6000	-1.89108E+006	384.715
323.5000	-1.92135E+006	384.418
323.4000	-1.91532E+006	384.121
323.3000	-1.64485E+006	383.964
323.2000	-1.6008E+006	383.869
323.1000	-1.47399E+006	383.607
323.0000	-1.18731E+006	383.322
322.9000	-956426	383.033
322.8000	-642906	382.892
322.7000	-400891	382.641
322.6000	-355131	382.364
322.5000	-582119	382.084
322.4000	-701034	381.802
322.3000	-430291	381.634
322.2000	-498749	381.333
322.1000	-876291	381.005
322.0000	-1.49876E+006	380.676
321.9000	-2.21196E+006	380.478
321.8000	-2.30062E+006	380.173
321.7000	-2.24621E+006	379.859
321.6000	-2.45352E+006	379.539
321.5000	-2.88263E+006	379.238
321.4000	-3.06462E+006	379.084
321.3000	-3.38196E+006	378.862
321.2000	-3.48295E+006	378.642
321.1000	-3.51439E+006	378.429
321.0000	-3.76153E+006	378.362
320.9000	-4.08665E+006	378.213
320.8000	-4.01832E+006	378.066
320.7000	-4.24153E+006	377.922
320.6000	-4.34597E+006	377.771
320.5000	-4.11234E+006	377.722
320.4000	-3.79035E+006	377.564
320.3000	-3.03093E+006	377.392
320.2000	-2.23414E+006	377.226
320.1000	-1.67549E+006	377.164
320.0000	-1.49616E+006	377.002
319.9000	-1.26635E+006	376.826
319.8000	-1.04527E+006	376.644
319.7000	-1.23153E+006	376.455
319.6000	-1.71945E+006	376.233
319.5000	-2.04693E+006	376.065
319.4000	-2.09714E+006	375.884
319.3000	-2.40951E+006	375.67
319.2000	-2.33587E+006	375.56
319.1000	-2.20826E+006	375.354
319.0000	-2.15954E+006	375.133
318.9000	-2.09099E+006	374.905
318.8000	-1.83827E+006	374.779
318.7000	-1.6566E+006	374.553
318.6000	-1.89745E+006	374.316
318.5000	-1.99947E+006	374.108
318.4000	-2.291E+006	373.898
318.3000	-2.48433E+006	373.672
318.2000	-2.61388E+006	373.501
318.1000	-2.49326E+006	373.336
318.0000	-2.28083E+006	373.156
317.9000	-2.13193E+006	373.084
317.8000	-1.60155E+006	372.957
317.7000	-1.59192E+006	372.806
317.6000	-1.50538E+006	372.624
317.5000	-1.09051E+006	372.526
317.4000	-766947	372.356
317.3000	-499923	372.173
317.2000	-698318	371.972
317.1000	-890652	371.771
317.0000	-1.44857E+006	371.509
316.9000	-1.72235E+006	371.291
316.8000	-1.64406E+006	371.101
316.7000	-2.13797E+006	370.908
316.6000	-2.45027E+006	370.71
316.5000	-2.73744E+006	370.548
316.4000	-2.87307E+006	370.379
316.3000	-2.90894E+006	370.204
316.2000	-2.74253E+006	370.034
316.1000	-2.677E+006	369.908
316.0000	-2.9558E+006	369.777
315.9000	-2.90249E+006	369.606
315.8000	-3.01332E+006	369.493
315.7000	-3.35941E+006	369.313
315.6000	-3.28188E+006	369.154
315.5000	-3.17022E+006	368.98
315.4000	-3.10852E+006	368.873
315.3000	-3.23259E+006	368.676
315.2000	-2.88621E+006	368.472
315.1000	-2.34248E+006	368.288
315.0000	-2.34875E+006	368.104
314.9000	-2.33873E+006	367.913
314.8000	-2.22526E+006	367.752
314.7000	-2.57511E+006	367.578
314.6000	-2.77432E+006	367.406
314.5000	-2.94138E+006	367.245
314.4000	-2.72313E+006	367.132
314.3000	-2.94683E+006	366.983
314.2000	-2.58625E+006	366.844
314.1000	-2.12631E+006	366.664
314.0000	-1.80737E+006	366.506
313.9000	-1.77247E+006	366.346
313.8000	-1.51563E+006	366.195
313.7000	-1.17563E+006	365.976
313.6000	-1.22097E+006	365.774
313.5000	-1.38025E+006	365.586
313.4000	-1.65757E+006	365.4
313.3000	-1.67317E+006	365.224
313.2000	-1.66185E+006	365.079
313.1000	-1.54262E+006	364.921
313.0000	-1.5542E+006	364.76
312.9000	-1.7341E+006	364.612
312.8000	-1.53383E+006	364.509
312.7000	-1.55041E+006	364.374
312.6000	-1.86763E+006	364.239
312.5000	-2.04915E+006	364.073
312.4000	-2.09267E+006	363.922
312.3000	-2.11313E+006	363.751
312.2000	-1.97734E+006	363.587
312.1000	-1.8793E+006	363.364
312.0000	-1.8889E+006	363.153
311.9000	-1.90757E+006	362.947
311.8000	-1.64826E+006	362.702
311.7000	-1.568E+006	362.505
311.6000	-1.73196E+006	362.298
311.5000	-1.9936E+006	362.128
311.4000	-2.16968E+006	361.914
311.3000	-2.20743E+006	361.777
311.2000	-2.49658E+006	361.64
311.1000	-2.6332E+006	361.531
311.0000	-3.15103E+006	361.408
310.9000	-3.5287E+006	361.309
310.8000	-3.69197E+006	361.2
310.7000	-3.77502E+006	361.105
310.6000	-3.61823E+006	360.983
310.5000	-3.67686E+006	360.877
310.4000	-3.52595E+006	360.777
310.3000	-3.61465E+006	360.684
310.2000	-3.47E+006	360.598
310.1000	-3.3153E+006	360.528
310.0000	-3.0314E+006	360.45
309.9000	-2.82823E+006	360.382
309.8000	-2.76188E+006	360.318
309.7000	-2.87662E+006	360.228
309.6000	-2.98638E+006	360.155
309.5000	-2.94747E+006	360.04
309.4000	-2.7058E+006	359.948
309.3000	-2.30022E+006	359.813
309.2000	-2.1788E+006	359.704
309.1000	-2.14727E+006	359.529
309.0000	-2.25132E+006	359.378
308.9000	-2.01304E+006	359.244
308.8000	-1.8521E+006	359.121
308.7000	-2.01846E+006	359.003
308.6000	-2.18817E+006	358.901
308.5000	-2.62977E+006	358.789
308.4000	-3.08498E+006	358.664
308.3000	-3.48548E+006	358.59
308.2000	-3.42528E+006	358.488
308.1000	-3.18638E+006	358.412
308.0000	-3.16049E+006	358.308
307.9000	-3.00739E+006	358.22
307.8000	-2.88717E+006	358.081
307.7000	-2.74248E+006	357.97
307.6000	-2.4409E+006	357.844
307.5000	-2.01492E+006	357.675
307.4000	-1.86552E+006	357.546
307.3000	-1.9967E+006	357.415
307.2000	-2.25892E+006	357.309
307.1000	-2.2511E+006	357.172
307.0000	-2.31486E+006	357.076
306.9000	-2.32239E+006	356.979
306.8000	-2.36138E+006	356.918
306.7000	-2.43142E+006	356.854
306.6000	-2.34762E+006	356.766
306.5000	-2.46444E+006	356.685
306.4000	-2.28356E+006	356.56
306.3000	-2.48102E+006	356.467
306.2000	-2.44286E+006	356.344
306.1000	-2.22999E+006	356.237
306.0000	-2.11595E+006	356.089
305.9000	-2.3982E+006	355.979
305.8000	-2.58051E+006	355.896
305.7000	-2.57538E+006	355.781
305.6000	-2.2382E+006	355.706
305.5000	-2.07558E+006	355.623
305.4000	-1.70136E+006	355.574
305.3000	-1.55042E+006	355.483
305.2000	-1.53645E+006	355.419
305.1000	-1.43779E+006	355.336
305.0000	-1.48044E+006	355.21
304.9000	-1.64505E+006	355.122
304.8000	-1.88923E+006	355.007
304.7000	-2.23937E+006	354.906
304.6000	-2.48781E+006	354.772
304.5000	-2.66822E+006	354.66
304.4000	-2.86084E+006	354.57
304.3000	-3.14502E+006	354.452
304.2000	-3.27045E+006	354.388
304.1000	-3.26497E+006	354.322
304.0000	-3.31235E+006	354.283
303.9000	-3.1455E+006	354.202
303.8000	-3.15734E+006	354.119
303.7000	-3.07907E+006	354.066
303.6000	-3.09718E+006	353.958
303.5000	-2.60262E+006	353.888
303.4000	-2.35569E+006	353.798
303.3000	-2.4658E+006	353.682
303.2000	-2.58047E+006	353.571
303.1000	-2.78433E+006	353.479
303.0000	-2.89187E+006	353.428
302.9000	-3.03912E+006	353.337
302.8000	-3.1522E+006	353.262
302.7000	-3.30003E+006	353.201
302.6000	-3.15637E+006	353.117
302.5000	-2.69184E+006	353.071
302.4000	-2.50114E+006	353.01
302.3000	-2.16315E+006	352.913
302.2000	-2.03868E+006	352.818
302.1000	-1.89582E+006	352.727
302.0000	-2.02344E+006	352.666
301.9000	-2.22319E+006	352.576
301.8000	-2.63619E+006	352.492
301.7000	-3.07763E+006	352.426
301.6000	-3.37292E+006	352.335
301.5000	-3.41896E+006	352.29
301.4000	-3.38779E+006	352.239
301.3000	-3.46738E+006	352.155
301.2000	-3.37153E+006	352.081
301.1000	-3.04471E+006	352.019
301.0000	-2.78072E+006	351.99
300.9000	-2.53139E+006	351.916
300.8000	-2.24677E+006	351.842
300.7000	-2.04841E+006	351.783
300.6000	-2.05604E+006	351.702
300.5000	-2.11127E+006	351.638
300.4000	-2.22752E+006	351.588
300.3000	-2.46167E+006	351.51
300.2000	-2.92805E+006	351.431
300.1000	-3.16566E+006	351.371
300.0000	-3.36566E+006	351.304
299.9000	-3.70212E+006	351.243
299.8000	-4.05374E+006	351.184
299.7000	-4.31799E+006	351.114
299.6000	-3.96487E+006	351.057
299.5000	-3.69154E+006	350.998
299.4000	-3.53763E+006	350.95
299.3000	-3.27275E+006	350.885
299.2000	-3.16888E+006	350.831
299.1000	-3.1434E+006	350.792
299.0000	-2.81932E+006	350.732
298.9000	-2.25759E+006	350.69
298.8000	-2.05706E+006	350.655
298.7000	-2.48192E+006	350.59
298.6000	-2.67165E+006	350.536
298.5000	-2.85301E+006	350.478
298.4000	-2.95524E+006	350.412
298.3000	-3.12546E+006	350.356
298.2000	-3.34979E+006	350.292
298.1000	-3.81845E+006	350.225
298.0000	-4.25258E+006	350.163
297.9000	-4.26606E+006	350.116
297.8000	-4.18837E+006	350.051
297.7000	-4.02002E+006	350.003
297.6000	-4.00858E+006	349.964
297.5000	-3.90762E+006	349.894
297.4000	-3.81716E+006	349.845
297.3000	-3.68371E+006	349.801
297.2000	-3.71761E+006	349.731
297.1000	-3.91979E+006	349.678
297.0000	-3.98428E+006	349.624
296.9000	-4.11137E+006	349.552
296.8000	-4.13409E+006	349.497
296.7000	-4.10465E+006	349.45
296.6000	-4.11286E+006	349.412
296.5000	-4.19455E+006	349.365
296.4000	-4.4452E+006	349.326
296.3000	-4.50103E+006	349.296
296.2000	-4.51655E+006	349.254
296.1000	-4.43932E+006	349.217
296.0000	-4.22017E+006	349.189
295.9000	-4.09495E+006	349.143
295.8000	-4.08794E+006	349.079
295.7000	-3.84683E+006	349.038
295.6000	-3.42429E+006	348.997
295.5000	-2.95086E+006	348.939
295.4000	-2.54279E+006	348.872
295.3000	-2.57675E+006	348.832
295.2000	-2.80411E+006	348.772
295.1000	-3.01361E+006	348.701
295.0000	-2.98724E+006	348.662
294.9000	-3.17391E+006	348.61
294.8000	-3.56253E+006	348.534
294.7000	-3.84323E+006	348.485
294.6000	-4.17633E+006	348.441
294.5000	-3.99239E+006	348.382
294.4000	-3.53909E+006	348.343
294.3000	-3.2247E+006	348.317
294.2000	-3.21318E+006	348.265
294.1000	-3.09806E+006	348.228
294.0000	-2.72064E+006	348.208
293.9000	-2.28391E+006	348.168
293.8000	-2.21929E+006	348.14
293.7000	-2.51706E+006	348.116
293.6000	-2.84906E+006	348.061
293.5000	-3.10444E+006	347.997
293.4000	-3.26244E+006	347.965
293.3000	-3.24581E+006	347.919
293.2000	-3.33391E+006	347.862
293.1000	-3.61068E+006	347.834
293.0000	-3.7978E+006	347.783
292.9000	-3.58207E+006	347.734
292.8000	-3.64928E+006	347.716
292.7000	-3.70082E+006	347.692
292.6000	-3.7061E+006	347.652
292.5000	-3.89992E+006	347.596
292.4000	-4.13917E+006	347.561
292.3000	-4.49676E+006	347.508
292.2000	-4.42767E+006	347.459
292.1000	-4.35602E+006	347.433
292.0000	-4.39614E+006	347.385
291.9000	-4.12046E+006	347.331
291.8000	-3.95327E+006	347.286
291.7000	-3.77471E+006	347.268
291.6000	-3.77899E+006	347.225
291.5000	-3.61227E+006	347.177
291.4000	-3.66121E+006	347.151
291.3000	-3.80095E+006	347.094
291.2000	-3.88893E+006	347.021
291.1000	-4.24105E+006	346.951
291.0000	-4.65401E+006	346.896
290.9000	-4.85189E+006	346.819
290.8000	-4.88465E+006	346.723
290.7000	-4.48086E+006	346.623
290.6000	-4.41424E+006	346.509
290.5000	-4.37935E+006	346.372
290.4000	-4.43145E+006	346.23
290.3000	-4.19075E+006	346.106
290.2000	-4.03889E+006	345.956
290.1000	-4.11009E+006	345.791
290.0000	-4.06629E+006	345.646
289.9000	-4.23171E+006	345.546
289.8000	-4.20901E+006	345.46
289.7000	-3.97434E+006	345.403
289.6000	-3.82488E+006	345.382
289.5000	-3.8724E+006	345.401
289.4000	-3.9083E+006	345.445
289.3000	-3.87126E+006	345.525
289.2000	-3.72836E+006	345.625
289.1000	-3.93287E+006	345.74
289.0000	-4.25499E+006	345.845
288.9000	-4.72288E+006	345.947
288.8000	-4.59984E+006	346.046
288.7000	-4.60927E+006	346.133
288.6000	-4.30717E+006	346.199
288.5000	-3.99327E+006	346.253
288.4000	-3.94153E+006	346.284
288.3000	-3.87396E+006	346.306
288.2000	-3.63732E+006	346.307
288.1000	-3.47074E+006	346.298
288.0000	-3.6214E+006	346.274
287.9000	-3.84916E+006	346.235
287.8000	-4.05786E+006	346.211
287.7000	-4.39904E+006	346.181
287.6000	-4.48853E+006	346.158
287.5000	-4.40891E+006	346.124
287.4000	-4.27003E+006	346.106
287.3000	-4.14738E+006	346.093
287.2000	-3.94294E+006	346.078
287.1000	-3.72123E+006	346.068
287.0000	-3.68504E+006	346.03
286.9000	-3.65363E+006	346.008
286.8000	-3.48946E+006	345.997
286.7000	-3.2915E+006	345.98
286.6000	-3.24674E+006	345.956
286.5000	-3.31254E+006	345.947
286.4000	-3.69675E+006	345.939
286.3000	-3.83513E+006	345.937
286.2000	-3.78124E+006	345.937
286.1000	-3.58697E+006	345.932
286.0000	-3.38276E+006	345.936
285.9000	-3.6159E+006	345.928
285.8000	-3.80683E+006	345.923
285.7000	-3.80694E+006	345.892
285.6000	-3.42875E+006	345.867
285.5000	-3.32151E+006	345.865
285.4000	-3.13299E+006	345.862
285.3000	-3.08478E+006	345.861
285.2000	-2.91755E+006	345.832
285.1000	-2.75127E+006	345.814
285.0000	-2.70119E+006	345.821
284.9000	-2.66281E+006	345.819
284.8000	-2.4877E+006	345.825
284.7000	-2.19203E+006	345.806
284.6000	-2.05856E+006	345.792
284.5000	-1.98075E+006	345.8
284.4000	-2.1421E+006	345.807
284.3000	-2.08897E+006	345.821
284.2000	-2.27699E+006	345.799
284.1000	-2.30496E+006	345.791
284.0000	-2.52879E+006	345.772
283.9000	-2.76924E+006	345.774
283.8000	-3.0379E+006	345.784
283.7000	-3.23888E+006	345.767
283.6000	-3.12246E+006	345.754
283.5000	-3.0333E+006	345.738
283.4000	-2.69704E+006	345.735
283.3000	-2.42542E+006	345.753
283.2000	-2.57953E+006	345.773
283.1000	-2.75001E+006	345.786
283.0000	-2.82012E+006	345.777
282.9000	-2.78843E+006	345.772
282.8000	-2.8903E+006	345.769
282.7000	-3.21263E+006	345.785
282.6000	-3.92177E+006	345.8
282.5000	-4.24585E+006	345.799
282.4000	-4.23554E+006	345.79
282.3000	-4.36521E+006	345.777
282.2000	-4.17423E+006	345.772
282.1000	-3.9131E+006	345.791
282.0000	-3.74476E+006	345.81
281.9000	-3.77539E+006	345.813
281.8000	-3.56859E+006	345.81
281.7000	-3.26861E+006	345.806
281.6000	-3.08876E+006	345.805
281.5000	-3.00539E+006	345.805
281.4000	-2.94389E+006	345.829
281.3000	-2.8925E+006	345.837
281.2000	-3.01165E+006	345.834
281.1000	-2.97274E+006	345.832
281.0000	-2.66801E+006	345.832
280.9000	-2.80547E+006	345.829
280.8000	-2.99529E+006	345.826
280.7000	-3.03556E+006	345.828
280.6000	-2.98943E+006	345.832
280.5000	-3.1363E+006	345.828
280.4000	-3.19309E+006	345.823
280.3000	-2.8949E+006	345.819
280.2000	-3.03332E+006	345.809
280.1000	-3.13552E+006	345.798
280.0000	-3.11394E+006	345.787
279.9000	-3.12246E+006	345.778
279.8000	-3.06614E+006	345.756
279.7000	-2.99884E+006	345.746
279.6000	-3.02419E+006	345.737
279.5000	-3.23745E+006	345.731
279.4000	-3.21225E+006	345.727
279.3000	-2.98484E+006	345.726
279.2000	-2.771E+006	345.725
279.1000	-2.51676E+006	345.725
279.0000	-2.27719E+006	345.725
278.9000	-2.33304E+006	345.712
278.8000	-2.27237E+006	345.718
278.7000	-2.18301E+006	345.73
278.6000	-2.22574E+006	345.745
278.5000	-2.56003E+006	345.76
278.4000	-2.72376E+006	345.779
278.3000	-3.00224E+006	345.798
278.2000	-3.22951E+006	345.819
278.1000	-3.2657E+006	345.84
278.0000	-3.24953E+006	345.846
277.9000	-3.07158E+006	345.844
277.8000	-3.00556E+006	345.839
277.7000	-2.92745E+006	345.835
277.6000	-3.0303E+006	345.849
277.5000	-2.97309E+006	345.864
277.4000	-2.92736E+006	345.88
277.3000	-2.81716E+006	345.899
277.2000	-2.74422E+006	345.919
277.1000	-3.0193E+006	345.933
277.0000	-3.33008E+006	345.948
276.9000	-3.4875E+006	345.965
276.8000	-3.39052E+006	345.967
276.7000	-3.3731E+006	345.962
276.6000	-3.48119E+006	345.959
276.5000	-3.44551E+006	345.96
276.4000	-3.50969E+006	345.959
276.3000	-3.45237E+006	345.964
276.2000	-3.09818E+006	345.975
276.1000	-2.88635E+006	345.991
276.0000	-2.87327E+006	346.022
275.9000	-2.8618E+006	346.055
275.8000	-2.56073E+006	346.09
275.7000	-2.41519E+006	346.125
275.6000	-2.41031E+006	346.158
275.5000	-2.30607E+006	346.186
275.4000	-2.32196E+006	346.211
275.3000	-2.81263E+006	346.23
275.2000	-3.06382E+006	346.243
275.1000	-2.86788E+006	346.253
275.0000	-2.90713E+006	346.253
274.9000	-3.05423E+006	346.25
274.8000	-3.28609E+006	346.246
274.7000	-3.65109E+006	346.245
274.6000	-3.8579E+006	346.249
274.5000	-3.50111E+006	346.26
274.4000	-3.01737E+006	346.268
274.3000	-2.99982E+006	346.275
274.2000	-2.94219E+006	346.285
274.1000	-3.01581E+006	346.302
274.0000	-2.94342E+006	346.316
273.9000	-2.7068E+006	346.334
273.8000	-2.52178E+006	346.354
273.7000	-2.60433E+006	346.374
273.6000	-2.92294E+006	346.388
273.5000	-2.86072E+006	346.406
273.4000	-3.10802E+006	346.417
273.3000	-3.34345E+006	346.431
273.2000	-3.28895E+006	346.449
273.1000	-3.32809E+006	346.47
273.0000	-3.47955E+006	346.485
272.9000	-3.43513E+006	346.5
272.8000	-3.28E+006	346.514
272.7000	-3.3471E+006	346.531
272.6000	-3.50727E+006	346.549
272.5000	-3.67016E+006	346.567
272.4000	-3.85381E+006	346.584
272.3000	-4.28341E+006	346.598
272.2000	-4.19837E+006	346.62
272.1000	-4.50603E+006	346.64
272.0000	-4.72783E+006	346.665
271.9000	-4.74032E+006	346.688
271.8000	-4.65161E+006	346.706
271.7000	-4.47593E+006	346.727
271.6000	-4.30379E+006	346.743
271.5000	-3.99398E+006	346.757
271.4000	-3.89706E+006	346.765
271.3000	-3.7641E+006	346.771
271.2000	-3.59624E+006	346.772
271.1000	-3.64071E+006	346.775
271.0000	-3.5365E+006	346.78
270.9000	-3.19009E+006	346.773
270.8000	-2.87032E+006	346.768
270.7000	-2.65667E+006	346.764
270.6000	-2.35717E+006	346.763
270.5000	-2.36166E+006	346.763
270.4000	-2.28698E+006	346.767
270.3000	-1.89651E+006	346.769
270.2000	-1.86871E+006	346.768
270.1000	-2.09442E+006	346.771
270.0000	-2.35597E+006	346.775
269.9000	-2.38137E+006	346.785
269.8000	-2.42651E+006	346.798
269.7000	-2.47062E+006	346.808
269.6000	-2.28931E+006	346.828
269.5000	-2.36282E+006	346.85
269.4000	-2.4859E+006	346.862
269.3000	-2.5236E+006	346.882
269.2000	-2.3531E+006	346.911
269.1000	-2.29448E+006	346.944
269.0000	-2.38163E+006	346.972
268.9000	-2.16653E+006	347.012
268.8000	-2.03879E+006	347.043
268.7000	-2.2105E+006	347.075
268.6000	-2.36113E+006	347.117
268.5000	-2.49337E+006	347.176
268.4000	-2.47362E+006	347.242
268.3000	-2.40238E+006	347.299
268.2000	-2.32712E+006	347.36
268.1000	-2.56049E+006	347.401
268.0000	-2.73278E+006	347.447
267.9000	-2.73552E+006	347.488
267.8000	-2.60289E+006	347.544
267.7000	-2.43294E+006	347.595
267.6000	-2.34259E+006	347.651
267.5000	-2.4812E+006	347.705
267.4000	-2.74754E+006	347.74
267.3000	-2.95036E+006	347.783
267.2000	-3.04785E+006	347.824
267.1000	-2.98797E+006	347.879
267.0000	-2.93567E+006	347.928
266.9000	-2.92272E+006	347.979
266.8000	-2.63936E+006	348.017
266.7000	-2.35149E+006	348.037
266.6000	-2.07997E+006	348.077
266.5000	-1.94139E+006	348.129
266.4000	-1.89337E+006	348.199
266.3000	-1.87189E+006	348.262
266.2000	-2.0045E+006	348.323
266.1000	-1.82133E+006	348.379
266.0000	-1.94895E+006	348.418
265.9000	-2.0699E+006	348.477
265.8000	-2.30553E+006	348.538
265.7000	-2.24745E+006	348.596
265.6000	-2.00655E+006	348.65
265.5000	-1.89225E+006	348.703
265.4000	-1.82845E+006	348.744
265.3000	-1.65121E+006	348.791
265.2000	-1.59959E+006	348.854
265.1000	-1.70848E+006	348.919
265.0000	-1.86937E+006	348.981
264.9000	-1.88634E+006	349.053
264.8000	-2.00139E+006	349.109
264.7000	-2.06177E+006	349.163
264.6000	-1.81713E+006	349.234
264.5000	-2.199E+006	349.31
264.4000	-2.5366E+006	349.384
264.3000	-2.51518E+006	349.448
264.2000	-2.09376E+006	349.518
264.1000	-2.02772E+006	349.583
264.0000	-2.15325E+006	349.658
263.9000	-2.26514E+006	349.731
263.8000	-2.71245E+006	349.792
263.7000	-2.73904E+006	349.859
263.6000	-2.77971E+006	349.931
263.5000	-2.90818E+006	350.012
263.4000	-3.19275E+006	350.106
263.3000	-3.38632E+006	350.18
263.2000	-3.60065E+006	350.245
263.1000	-3.79598E+006	350.32
263.0000	-3.46404E+006	350.412
262.9000	-3.25316E+006	350.487
262.8000	-2.68372E+006	350.557
262.7000	-2.22701E+006	350.629
262.6000	-2.05881E+006	350.694
262.5000	-1.76546E+006	350.77
262.4000	-1.46792E+006	350.844
262.3000	-1.32549E+006	350.919
262.2000	-1.37059E+006	350.986
262.1000	-1.54356E+006	351.072
262.0000	-2.04919E+006	351.147
261.9000	-2.48063E+006	351.224
261.8000	-2.69786E+006	351.304
261.7000	-2.95761E+006	351.37
261.6000	-3.0411E+006	351.453
261.5000	-2.99407E+006	351.549
261.4000	-2.98274E+006	351.649
261.3000	-3.34267E+006	351.726
261.2000	-3.34912E+006	351.812
261.1000	-3.02344E+006	351.902
261.0000	-2.63335E+006	351.993
260.9000	-2.34461E+006	352.077
260.8000	-2.2945E+006	352.168
260.7000	-2.15232E+006	352.256
260.6000	-2.01067E+006	352.333
260.5000	-1.7941E+006	352.42
260.4000	-1.54704E+006	352.517
260.3000	-1.533E+006	352.608
260.2000	-1.825E+006	352.673
260.1000	-2.21378E+006	352.745
260.0000	-2.46338E+006	352.825
259.9000	-2.74121E+006	352.891
259.8000	-3.0383E+006	352.972
259.7000	-3.13216E+006	353.063
259.6000	-2.96696E+006	353.135
259.5000	-2.98184E+006	353.203
259.4000	-2.931E+006	353.287
259.3000	-2.64487E+006	353.366
259.2000	-2.48097E+006	353.441
259.1000	-2.11147E+006	353.521
259.0000	-1.9017E+006	353.59
258.9000	-1.52219E+006	353.658
258.8000	-1.5234E+006	353.742
258.7000	-1.58019E+006	353.824
258.6000	-1.44803E+006	353.913
258.5000	-1.48184E+006	354.018
258.4000	-1.52278E+006	354.122
258.3000	-1.58673E+006	354.232
258.2000	-1.7762E+006	354.349
258.1000	-1.81463E+006	354.456
258.0000	-1.91279E+006	354.559
257.9000	-1.90705E+006	354.667
257.8000	-2.17736E+006	354.76
257.7000	-2.04654E+006	354.86
257.6000	-1.86777E+006	354.971
257.5000	-1.65121E+006	355.07
257.4000	-1.60555E+006	355.168
257.3000	-1.63405E+006	355.259
257.2000	-1.57422E+006	355.358
257.1000	-1.50904E+006	355.458
257.0000	-1.43133E+006	355.564
256.9000	-1.25836E+006	355.676
256.8000	-1.30858E+006	355.761
256.7000	-1.5032E+006	355.848
256.6000	-1.56541E+006	355.936
256.5000	-1.33861E+006	356.016
256.4000	-1.27053E+006	356.093
256.3000	-1.42274E+006	356.153
256.2000	-1.51489E+006	356.222
256.1000	-1.77683E+006	356.303
256.0000	-2.08868E+006	356.38
255.9000	-2.30415E+006	356.461
255.8000	-2.36235E+006	356.531
255.7000	-2.60032E+006	356.625
255.6000	-2.77742E+006	356.728
255.5000	-2.696E+006	356.826
255.4000	-2.5574E+006	356.93
255.3000	-2.39929E+006	357.02
255.2000	-2.30164E+006	357.116
255.1000	-2.43048E+006	357.209
255.0000	-2.30074E+006	357.325
254.9000	-2.23046E+006	357.427
254.8000	-2.40657E+006	357.517
254.7000	-2.75122E+006	357.627
254.6000	-2.61251E+006	357.738
254.5000	-2.61176E+006	357.851
254.4000	-2.85685E+006	357.956
254.3000	-3.02539E+006	358.073
254.2000	-3.26819E+006	358.175
254.1000	-3.44774E+006	358.277
254.0000	-3.47368E+006	358.373
253.9000	-3.40484E+006	358.459
253.8000	-3.15457E+006	358.531
253.7000	-3.06938E+006	358.604
253.6000	-3.01877E+006	358.677
253.5000	-2.93808E+006	358.753
253.4000	-2.82398E+006	358.819
253.3000	-2.63613E+006	358.89
253.2000	-2.22097E+006	358.964
253.1000	-2.3509E+006	359.046
253.0000	-2.37873E+006	359.135
252.9000	-2.56757E+006	359.222
252.8000	-2.58189E+006	359.298
252.7000	-2.51562E+006	359.377
252.6000	-2.37804E+006	359.457
252.5000	-2.553E+006	359.53
252.4000	-3.03507E+006	359.593
252.3000	-3.02199E+006	359.664
252.2000	-3.25282E+006	359.724
252.1000	-3.48686E+006	359.792
252.0000	-3.59717E+006	359.87
251.9000	-3.55567E+006	359.94
251.8000	-3.71582E+006	360.014
251.7000	-3.30383E+006	360.095
251.6000	-2.99123E+006	360.192
251.5000	-2.68641E+006	360.293
251.4000	-2.28191E+006	360.414
251.3000	-1.98108E+006	360.537
251.2000	-1.47204E+006	360.653
251.1000	-1.28192E+006	360.773
251.0000	-1.25045E+006	360.885
250.9000	-1.39063E+006	361.002
250.8000	-1.81679E+006	361.112
250.7000	-2.04472E+006	361.229
250.6000	-2.33569E+006	361.327
250.5000	-2.50624E+006	361.415
250.4000	-2.81105E+006	361.51
250.3000	-3.07693E+006	361.595
250.2000	-2.94548E+006	361.689
250.1000	-2.777E+006	361.777
250.0000	-2.55119E+006	361.865
249.9000	-2.4349E+006	361.954
249.8000	-2.25563E+006	362.037
249.7000	-2.2614E+006	362.129
249.6000	-2.34679E+006	362.213
249.5000	-2.34975E+006	362.301
249.4000	-2.54016E+006	362.393
249.3000	-2.61078E+006	362.486
249.2000	-2.70301E+006	362.583
249.1000	-2.89041E+006	362.681
249.0000	-3.32869E+006	362.78
248.9000	-3.55762E+006	362.883
248.8000	-3.35396E+006	362.989
248.7000	-2.95412E+006	363.087
248.6000	-2.66647E+006	363.183
248.5000	-2.33122E+006	363.286
248.4000	-2.32713E+006	363.384
248.3000	-2.08195E+006	363.474
248.2000	-1.82285E+006	363.573
248.1000	-1.5783E+006	363.671
248.0000	-1.21545E+006	363.762
247.9000	-1.59042E+006	363.852
247.8000	-1.95324E+006	363.939
247.7000	-2.32824E+006	364.021
247.6000	-2.31318E+006	364.118
247.5000	-2.15671E+006	364.218
247.4000	-1.98586E+006	364.303
247.3000	-1.70782E+006	364.372
247.2000	-1.62544E+006	364.45
247.1000	-1.55004E+006	364.528
247.0000	-1.36286E+006	364.606
246.9000	-1.21019E+006	364.692
246.8000	-1.27693E+006	364.764
246.7000	-1.29005E+006	364.828
246.6000	-1.35772E+006	364.9
246.5000	-1.43694E+006	364.994
246.4000	-1.70301E+006	365.089
246.3000	-1.84761E+006	365.181
246.2000	-1.90868E+006	365.273
246.1000	-2.00496E+006	365.371
246.0000	-1.91278E+006	365.473
245.9000	-2.02917E+006	365.573
245.8000	-2.4096E+006	365.672
245.7000	-2.70371E+006	365.78
245.6000	-3.02207E+006	365.887
245.5000	-3.43893E+006	365.996
245.4000	-3.58597E+006	366.112
245.3000	-3.84283E+006	366.226
245.2000	-3.98928E+006	366.351
245.1000	-4.23068E+006	366.471
245.0000	-4.2702E+006	366.599
244.9000	-4.21206E+006	366.711
244.8000	-3.85256E+006	366.817
244.7000	-3.76622E+006	366.926
244.6000	-3.52115E+006	367.037
244.5000	-2.91861E+006	367.149
244.4000	-2.51808E+006	367.246
244.3000	-2.33164E+006	367.349
244.2000	-2.17469E+006	367.45
244.1000	-2.18889E+006	367.558
244.0000	-2.12473E+006	367.672
243.9000	-2.17392E+006	367.782
243.8000	-2.17179E+006	367.89
243.7000	-2.47545E+006	367.998
243.6000	-2.93281E+006	368.111
243.5000	-3.09933E+006	368.221
243.4000	-2.88748E+006	368.341
243.3000	-2.55044E+006	368.459
243.2000	-2.75588E+006	368.564
243.1000	-2.64337E+006	368.674
243.0000	-2.59242E+006	368.785
242.9000	-2.38437E+006	368.9
242.8000	-1.91736E+006	369.02
242.7000	-1.70736E+006	369.134
242.6000	-1.83531E+006	369.242
242.5000	-1.8634E+006	369.349
242.4000	-1.594E+006	369.474
242.3000	-1.57389E+006	369.601
242.2000	-1.44585E+006	369.727
242.1000	-1.63611E+006	369.844
242.0000	-2.07507E+006	369.956
241.9000	-2.03564E+006	370.072
241.8000	-2.14716E+006	370.192
241.7000	-2.76891E+006	370.313
241.6000	-3.00455E+006	370.43
241.5000	-3.25823E+006	370.545
241.4000	-3.38017E+006	370.657
241.3000	-3.432E+006	370.775
241.2000	-3.41738E+006	370.896
241.1000	-3.68528E+006	371.018
241.0000	-3.79699E+006	371.147
240.9000	-3.5037E+006	371.276
240.8000	-3.32154E+006	371.4
240.7000	-3.06646E+006	371.522
240.6000	-3.05636E+006	371.644
240.5000	-3.15502E+006	371.773
240.4000	-3.25238E+006	371.91
240.3000	-3.28416E+006	372.053
240.2000	-3.16105E+006	372.197
240.1000	-3.13721E+006	372.343
240.0000	-3.00609E+006	372.497
239.9000	-3.11207E+006	372.657
239.8000	-3.08087E+006	372.823
239.7000	-3.11276E+006	372.985
239.6000	-3.04371E+006	373.148
239.5000	-2.89406E+006	373.311
239.4000	-2.86001E+006	373.473
239.3000	-2.72218E+006	373.633
239.2000	-2.78657E+006	373.79
239.1000	-2.67084E+006	373.941
239.0000	-2.74308E+006	374.089
238.9000	-2.98507E+006	374.237
238.8000	-2.9036E+006	374.39
238.7000	-3.07452E+006	374.538
238.6000	-3.33991E+006	374.678
238.5000	-3.45526E+006	374.824
238.4000	-3.67958E+006	374.971
238.3000	-3.95225E+006	375.119
238.2000	-3.91033E+006	375.274
238.1000	-3.7515E+006	375.43
238.0000	-3.74562E+006	375.589
237.9000	-4.11279E+006	375.749
237.8000	-3.99798E+006	375.915
237.7000	-4.26512E+006	376.078
237.6000	-4.70842E+006	376.244
237.5000	-4.9806E+006	376.421
237.4000	-5.30109E+006	376.598
237.3000	-5.2554E+006	376.781
237.2000	-5.1008E+006	376.964
237.1000	-4.79937E+006	377.139
237.0000	-4.57452E+006	377.313
236.9000	-4.49101E+006	377.494
236.8000	-4.0246E+006	377.682
236.7000	-3.6848E+006	377.864
236.6000	-3.18868E+006	378.036
236.5000	-3.16429E+006	378.206
236.4000	-3.13878E+006	378.382
236.3000	-3.01855E+006	378.566
236.2000	-3.53496E+006	378.748
236.1000	-3.77573E+006	378.923
236.0000	-3.8564E+006	379.092
235.9000	-3.89833E+006	379.258
235.8000	-4.0314E+006	379.437
235.7000	-4.01696E+006	379.621
235.6000	-4.14981E+006	379.801
235.5000	-4.3286E+006	379.977
235.4000	-4.18981E+006	380.16
235.3000	-3.86349E+006	380.347
235.2000	-3.9969E+006	380.536
235.1000	-4.09124E+006	380.728
235.0000	-3.92967E+006	380.923
234.9000	-3.66585E+006	381.116
234.8000	-3.69504E+006	381.309
234.7000	-3.84125E+006	381.503
234.6000	-3.93928E+006	381.689
234.5000	-4.13074E+006	381.876
234.4000	-3.84123E+006	382.075
234.3000	-4.03194E+006	382.272
234.2000	-4.39209E+006	382.471
234.1000	-4.87129E+006	382.672
234.0000	-5.05685E+006	382.865
233.9000	-5.10533E+006	383.057
233.8000	-5.31049E+006	383.261
233.7000	-5.23939E+006	383.465
233.6000	-5.57766E+006	383.667
233.5000	-5.38879E+006	383.871
233.4000	-5.07053E+006	384.066
233.3000	-5.11753E+006	384.261
233.2000	-5.14369E+006	384.471
233.1000	-5.15858E+006	384.68
233.0000	-5.21108E+006	384.889
232.9000	-5.01776E+006	385.097
232.8000	-4.74878E+006	385.312
232.7000	-4.95705E+006	385.536
232.6000	-5.48628E+006	385.76
232.5000	-5.5644E+006	385.986
232.4000	-5.58688E+006	386.198
232.3000	-5.53573E+006	386.414
232.2000	-5.17398E+006	386.625
232.1000	-5.12368E+006	386.841
232.0000	-5.28476E+006	387.052
231.9000	-5.43054E+006	387.253
231.8000	-5.41743E+006	387.44
231.7000	-5.19219E+006	387.635
231.6000	-5.61918E+006	387.832
231.5000	-5.63697E+006	388.028
231.4000	-5.76042E+006	388.233
231.3000	-5.98774E+006	388.434
231.2000	-6.53868E+006	388.635
231.1000	-6.69269E+006	388.834
231.0000	-6.95514E+006	389.037
230.9000	-6.94707E+006	389.252
230.8000	-6.88292E+006	389.462
230.7000	-6.96077E+006	389.68
230.6000	-7.13881E+006	389.894
230.5000	-7.41648E+006	390.115
230.4000	-6.89641E+006	390.339
230.3000	-6.41343E+006	390.574
230.2000	-6.0697E+006	390.81
230.1000	-5.73558E+006	391.051
230.0000	-5.58838E+006	391.288
229.9000	-5.36707E+006	391.515
229.8000	-5.18956E+006	391.746
229.7000	-4.70377E+006	391.967
229.6000	-4.89092E+006	392.181
229.5000	-5.18638E+006	392.385
229.4000	-5.14591E+006	392.583
229.3000	-5.28231E+006	392.774
229.2000	-5.58278E+006	392.955
229.1000	-6.4534E+006	393.133
229.0000	-7.15297E+006	393.318
228.9000	-8.10787E+006	393.505
228.8000	-8.69194E+006	393.7
228.7000	-8.76632E+006	393.916
228.6000	-9.24865E+006	394.137
228.5000	-9.61249E+006	394.362
228.4000	-9.73459E+006	394.61
228.3000	-9.16043E+006	394.871
228.2000	-8.5134E+006	395.13
228.1000	-7.68374E+006	395.398
228.0000	-7.11786E+006	395.661
227.9000	-6.77788E+006	395.913
227.8000	-6.15787E+006	396.16
227.7000	-5.23914E+006	396.417
227.6000	-4.86709E+006	396.659
227.5000	-4.70435E+006	396.893
227.4000	-4.69021E+006	397.127
227.3000	-5.00868E+006	397.359
227.2000	-5.00609E+006	397.593
227.1000	-5.09682E+006	397.825
227.0000	-4.89292E+006	398.062
226.9000	-5.76357E+006	398.281
226.8000	-6.46402E+006	398.503
226.7000	-6.77763E+006	398.731
226.6000	-7.33979E+006	398.954
226.5000	-7.28252E+006	399.18
226.4000	-7.26714E+006	399.4
226.3000	-7.38136E+006	399.62
226.2000	-7.82894E+006	399.843
226.1000	-7.79446E+006	400.071
226.0000	-7.70833E+006	400.297
225.9000	-8.15188E+006	400.516
225.8000	-8.26892E+006	400.739
225.7000	-8.64386E+006	400.955
225.6000	-9.33564E+006	401.17
225.5000	-9.76982E+006	401.388
225.4000	-1.04949E+007	401.602
225.3000	-1.05089E+007	401.827
225.2000	-1.0111E+007	402.059
225.1000	-9.29598E+006	402.297
225.0000	-8.73351E+006	402.529
224.9000	-8.48048E+006	402.762
224.8000	-8.02936E+006	402.997
224.7000	-7.74526E+006	403.229
224.6000	-7.04841E+006	403.464
224.5000	-6.90516E+006	403.691
224.4000	-7.05518E+006	403.913
224.3000	-7.16044E+006	404.136
224.2000	-7.16431E+006	404.361
224.1000	-6.70988E+006	404.593
224.0000	-6.48506E+006	404.825
223.9000	-6.20122E+006	405.058
223.8000	-6.36013E+006	405.285
223.7000	-6.69283E+006	405.51
223.6000	-7.12005E+006	405.737
223.5000	-7.169E+006	405.969
223.4000	-7.68538E+006	406.194
223.3000	-8.68687E+006	406.404
223.2000	-9.30877E+006	406.618
223.1000	-9.78431E+006	406.834
223.0000	-9.76673E+006	407.059
222.9000	-9.699E+006	407.283
222.8000	-9.3484E+006	407.51
222.7000	-9.54724E+006	407.728
222.6000	-9.53067E+006	407.949
222.5000	-9.27545E+006	408.18
222.4000	-9.17955E+006	408.402
222.3000	-8.69249E+006	408.627
222.2000	-8.1835E+006	408.849
222.1000	-7.48339E+006	409.074
222.0000	-7.06332E+006	409.299
221.9000	-6.53098E+006	409.515
221.8000	-6.67352E+006	409.729
221.7000	-6.76914E+006	409.943
221.6000	-6.49733E+006	410.168
221.5000	-6.36759E+006	410.396
221.4000	-6.56277E+006	410.616
221.3000	-6.73123E+006	410.836
221.2000	-7.10485E+006	411.055
221.1000	-7.48075E+006	411.281
221.0000	-7.6232E+006	411.502
220.9000	-7.47283E+006	411.726
220.8000	-7.29691E+006	411.947
220.7000	-6.93022E+006	412.164
220.6000	-6.80743E+006	412.385
220.5000	-7.22837E+006	412.607
220.4000	-7.49283E+006	412.822
220.3000	-7.53957E+006	413.043
220.2000	-7.39471E+006	413.274
220.1000	-6.86868E+006	413.502
220.0000	-6.7514E+006	413.729
219.9000	-7.00985E+006	413.96
219.8000	-7.29092E+006	414.187
219.7000	-7.25887E+006	414.415
219.6000	-7.22106E+006	414.642
219.5000	-6.8679E+006	414.875
219.4000	-6.28333E+006	415.109
219.3000	-5.69936E+006	415.344
219.2000	-5.4528E+006	415.577
219.1000	-5.21766E+006	415.803
219.0000	-4.92381E+006	416.033
218.9000	-4.61409E+006	416.26
218.8000	-4.15075E+006	416.493
218.7000	-4.04337E+006	416.716
218.6000	-4.39016E+006	416.935
218.5000	-5.25373E+006	417.147
218.4000	-5.35762E+006	417.371
218.3000	-5.32222E+006	417.597
218.2000	-5.71975E+006	417.818
218.1000	-5.69471E+006	418.039
218.0000	-5.81303E+006	418.264
217.9000	-6.1334E+006	418.487
217.8000	-5.78817E+006	418.711
217.7000	-5.23736E+006	418.938
217.6000	-5.43798E+006	419.156
217.5000	-6.04691E+006	419.376
217.4000	-5.89424E+006	419.601
217.3000	-6.14426E+006	419.823
217.2000	-6.49597E+006	420.046
217.1000	-6.76872E+006	420.267
217.0000	-7.51462E+006	420.485
216.9000	-8.33706E+006	420.707
216.8000	-8.5308E+006	420.935
216.7000	-8.65892E+006	421.161
216.6000	-8.43743E+006	421.395
216.5000	-8.21691E+006	421.625
216.4000	-7.94548E+006	421.849
216.3000	-7.63129E+006	422.074
216.2000	-7.20752E+006	422.309
216.1000	-6.90339E+006	422.54
216.0000	-6.88192E+006	422.763
215.9000	-6.64768E+006	422.987
215.8000	-6.88177E+006	423.203
215.7000	-7.75067E+006	423.421
215.6000	-8.67142E+006	423.644
215.5000	-8.89269E+006	423.875
215.4000	-8.97006E+006	424.101
215.3000	-8.36289E+006	424.331
215.2000	-8.251E+006	424.559
215.1000	-7.87271E+006	424.8
215.0000	-7.19924E+006	425.047
214.9000	-6.56072E+006	425.289
214.8000	-5.83385E+006	425.53
214.7000	-6.05725E+006	425.765
214.6000	-5.5472E+006	426.011
214.5000	-5.5562E+006	426.253
214.4000	-5.39584E+006	426.5
214.3000	-5.38992E+006	426.743
214.2000	-5.93262E+006	426.977
214.1000	-6.28374E+006	427.215
214.0000	-6.67382E+006	427.452
213.9000	-6.85406E+006	427.693
213.8000	-7.84957E+006	427.925
213.7000	-8.4009E+006	428.166
213.6000	-8.35318E+006	428.413
213.5000	-8.44346E+006	428.66
213.4000	-8.65862E+006	428.911
213.3000	-8.56549E+006	429.165
213.2000	-8.53207E+006	429.424
213.1000	-7.85182E+006	429.69
213.0000	-6.97458E+006	429.959
212.9000	-6.02337E+006	430.226
212.8000	-5.67277E+006	430.484
212.7000	-5.55941E+006	430.744
212.6000	-5.45382E+006	431
212.5000	-5.68798E+006	431.255
212.4000	-5.92841E+006	431.514
212.3000	-6.47909E+006	431.766
212.2000	-6.94937E+006	432.023
212.1000	-7.49976E+006	432.282
212.0000	-8.01501E+006	432.551
211.9000	-8.31243E+006	432.825
211.8000	-8.50179E+006	433.095
211.7000	-7.87763E+006	433.375
211.6000	-7.67188E+006	433.654
211.5000	-7.67362E+006	433.927
211.4000	-7.65586E+006	434.206
211.3000	-6.77243E+006	434.494
211.2000	-5.797E+006	434.776
211.1000	-5.67575E+006	435.053
211.0000	-6.13025E+006	435.331
210.9000	-5.92602E+006	435.618
210.8000	-5.76816E+006	435.903
210.7000	-5.15826E+006	436.203
210.6000	-4.78779E+006	436.495
210.5000	-5.07655E+006	436.788
210.4000	-6.23662E+006	437.073
210.3000	-6.49205E+006	437.374
210.2000	-6.93243E+006	437.668
210.1000	-7.69369E+006	437.966
210.0000	-7.67439E+006	438.262
209.9000	-8.10988E+006	438.555
209.8000	-8.02607E+006	438.85
209.7000	-8.44538E+006	439.144
209.6000	-8.53238E+006	439.442
209.5000	-9.05219E+006	439.74
209.4000	-8.92943E+006	440.04
209.3000	-7.44932E+006	440.351
209.2000	-7.47922E+006	440.655
209.1000	-7.80784E+006	440.958
209.0000	-8.30671E+006	441.263
208.9000	-8.36363E+006	441.574
208.8000	-8.49852E+006	441.882
208.7000	-8.11229E+006	442.193
208.6000	-7.77162E+006	442.517
208.5000	-8.85752E+006	442.834
208.4000	-9.10791E+006	443.152
208.3000	-9.2395E+006	443.476
208.2000	-9.90672E+006	443.797
208.1000	-1.02632E+007	444.121
208.0000	-1.06136E+007	444.445
207.9000	-1.07618E+007	444.772
207.8000	-1.08318E+007	445.098
207.7000	-1.02633E+007	445.424
207.6000	-1.00945E+007	445.749
207.5000	-1.05304E+007	446.067
207.4000	-9.94252E+006	446.394
207.3000	-8.8599E+006	446.723
207.2000	-8.40386E+006	447.047
207.1000	-7.33548E+006	447.374
207.0000	-6.82967E+006	447.692
206.9000	-6.82841E+006	448.01
206.8000	-6.86089E+006	448.329
206.7000	-6.57688E+006	448.655
206.6000	-6.69375E+006	448.975
206.5000	-7.0621E+006	449.3
206.4000	-8.05439E+006	449.618
206.3000	-9.01543E+006	449.939
206.2000	-9.9097E+006	450.255
206.1000	-1.00993E+007	450.572
206.0000	-1.0213E+007	450.893
205.9000	-1.07655E+007	451.207
205.8000	-1.10501E+007	451.528
205.7000	-1.10819E+007	451.849
205.6000	-1.04062E+007	452.183
205.5000	-9.45727E+006	452.521
205.4000	-8.78748E+006	452.859
205.3000	-8.65847E+006	453.196
205.2000	-8.74426E+006	453.534
205.1000	-8.4697E+006	453.878
205.0000	-8.35648E+006	454.221
204.9000	-7.72895E+006	454.57
204.8000	-7.25984E+006	454.918
204.7000	-6.49197E+006	455.27
204.6000	-6.39608E+006	455.617
204.5000	-6.40326E+006	455.968
204.4000	-6.38263E+006	456.318
204.3000	-7.03342E+006	456.665
204.2000	-6.47449E+006	457.025
204.1000	-6.43199E+006	457.381
204.0000	-6.8135E+006	457.736
203.9000	-7.15599E+006	458.088
203.8000	-7.35103E+006	458.445
203.7000	-7.04196E+006	458.809
203.6000	-7.15129E+006	459.174
203.5000	-6.35815E+006	459.546
203.4000	-5.69249E+006	459.92
203.3000	-5.71613E+006	460.293
203.2000	-5.98598E+006	460.666
203.1000	-5.57454E+006	461.046
203.0000	-5.89181E+006	461.426
202.9000	-6.06659E+006	461.805
202.8000	-5.71985E+006	462.189
202.7000	-5.85041E+006	462.572
202.6000	-5.93384E+006	462.954
202.5000	-5.69269E+006	463.334
202.4000	-5.19903E+006	463.72
202.3000	-4.4334E+006	464.113
202.2000	-3.49955E+006	464.508
202.1000	-2.33845E+006	464.909
202.0000	-2.03655E+006	465.306
201.9000	-977197	465.716
201.8000	-22774.3	466.131
201.7000	259437	466.549
201.6000	155235	466.967
201.5000	-334607	467.386
201.4000	-1.45827E+006	467.803
201.3000	-1.85596E+006	468.235
201.2000	-2.56877E+006	468.665
201.1000	-3.34764E+006	469.097
201.0000	-4.62733E+006	469.531
200.9000	-5.01361E+006	469.98
200.8000	-5.33409E+006	470.434
200.7000	-4.55365E+006	470.908
200.6000	-2.95798E+006	471.399
200.5000	-1.58338E+006	471.898
200.4000	-289356	472.406
200.3000	664166	472.916
200.2000	2.42363E+006	473.439
200.1000	4.23191E+006	473.964
200.0000	4.68829E+006	474.479
199.9000	3.60235E+006	474.981
199.8000	1.35846E+006	475.465
199.7000	238495	475.951
199.6000	-321130	476.441
199.5000	-334921	476.941
199.4000	-1.14649E+006	477.438
199.3000	-2.29197E+006	477.938
199.2000	-1.73085E+006	478.467
199.1000	-229576	479.012
199.0000	1.2321E+006	479.57
198.9000	2.34239E+006	480.141
198.8000	2.86083E+006	480.726
198.7000	2.47121E+006	481.319
198.6000	2.89985E+006	481.939
198.5000	3.51231E+006	482.577
198.4000	3.50294E+006	483.22
198.3000	3.17614E+006	483.878
198.2000	2.83839E+006	484.564
198.1000	2.37418E+006	485.281
198.0000	2.44727E+006	486.031
197.9000	2.9736E+006	486.808
197.8000	3.33942E+006	487.599
197.7000	3.76619E+006	488.406
197.6000	3.58041E+006	489.218
197.5000	4.76318E+006	490.04
197.4000	6.31212E+006	490.846
197.3000	7.75588E+006	491.63
197.2000	7.97454E+006	492.364
197.1000	7.28196E+006	493.063
197.0000	6.39223E+006	493.747
196.9000	5.57571E+006	494.428
196.8000	5.34166E+006	495.122
196.7000	4.53917E+006	495.834
196.6000	3.94468E+006	496.58
196.5000	3.02788E+006	497.365
196.4000	3.27758E+006	498.22
196.3000	3.73962E+006	499.135
196.2000	4.73885E+006	500.116
196.1000	6.67658E+006	501.17
196.0000	8.69791E+006	502.296
195.9000	1.07528E+007	503.511
195.8000	1.12441E+007	504.821
195.7000	1.22342E+007	506.265
195.6000	1.30057E+007	507.825
195.5000	1.42015E+007	509.497
195.4000	1.46189E+007	511.233
195.3000	1.3993E+007	513.003
195.2000	1.38621E+007	514.78
195.1000	1.37371E+007	516.515
195.0000	1.35402E+007	518.132
194.9000	1.331E+007	519.571
194.8000	1.23743E+007	520.824
194.7000	1.03788E+007	521.903
194.6000	1.04489E+007	522.884
194.5000	1.1193E+007	523.793
194.4000	1.02443E+007	524.662
194.3000	1.05094E+007	525.553
194.2000	1.05936E+007	526.538
194.1000	1.2035E+007	527.684
194.0000	1.31848E+007	529.044
193.9000	1.51229E+007	530.641
193.8000	1.44814E+007	532.469
193.7000	1.25604E+007	534.574
193.6000	1.29547E+007	537.014
193.5000	1.2364E+007	539.817
193.4000	1.23107E+007	543.008
193.3000	1.05675E+007	546.551
193.2000	7.96467E+006	550.369
193.1000	7.14792E+006	554.386
193.0000	8.03386E+006	558.509
192.9000	7.94163E+006	562.552
192.8000	7.82467E+006	566.37
192.7000	8.96715E+006	569.762
192.6000	9.8625E+006	572.556
192.5000	9.52245E+006	574.721
192.4000	9.65601E+006	576.36
192.3000	9.14751E+006	577.58
192.2000	8.53165E+006	578.499
192.1000	8.34189E+006	579.257
192.0000	9.57923E+006	580.043
191.9000	8.22241E+006	581.054
191.8000	7.46712E+006	582.533
191.7000	9.7648E+006	584.621
191.6000	1.36862E+007	587.348
191.5000	1.52896E+007	590.639
191.4000	1.45939E+007	594.55
191.3000	1.62759E+007	599.201
191.2000	1.75359E+007	604.472
191.1000	1.73374E+007	610.354
191.0000	1.73057E+007	616.711
190.9000	1.52495E+007	623.334
190.8000	1.14049E+007	630.06
190.7000	1.14255E+007	636.761
190.6000	1.45762E+007	643.193
190.5000	2.02997E+007	648.988
190.4000	2.04158E+007	653.94
190.3000	2.1695E+007	657.974
190.2000	1.96675E+007	661.162
190.1000	1.51709E+007	663.676
190.0000	1.52603E+007	665.793

##### Extended Information
[Comments]
Sample name	ACE2
Comment
User
Division
Company	CSIR-IMTECH

[Detailed Information]
Creation date	4/8/2024 4:35 PM

Data array type	Linear data array * 2
Horizontal axis	Wavelength [nm]
Vertical axis(1)	Mol. Ellip.
Vertical axis(2)	HT [V]
Start	350 nm
End	190 nm
Data interval	0.1 nm
Data points	1601    

[Measurement Information]
Instrument Name	JASCO CD
Model Name	J-815
Serial No.	B063061168

Accessory	PTC-423S
Accessory S/N	C013945-01
  Temperature	35.98 C
  Control Sonsor	Cell
  Monitor Sensor	Cell
  Start Mode	Start immediately
  Cell Length	10 mm

Measurement date	4/8/2024 4:31 PM

Photometric Mode	CD, HT
Measure Range	350 - 190 nm
Data pitch	0.1 nm
Sensitivity	Standard
D.I.T.	1 sec
Bandwidth	1.00 nm
Start Mode	Immediately
Scanning Speed	50 nm/min
Baseline Correction	None
Shutter Control	Auto
CD Detector	PMT
PMT Voltage	Auto
Accumulations	3
Concentration	0.27 umol/L

